#Measurement data
#16.05.2022 13:31:20

#Time (days)	Power (W)	Current (A)
0.000019	0.070000	0.006100
0.000032	0.070000	0.006100
0.000043	0.070000	0.006100
0.000055	0.070000	0.006100
0.000067	0.070000	0.006100
0.000078	0.070000	0.006100
0.000091	0.070000	0.006100
0.000104	0.070000	0.006200
0.000113	0.070000	0.006200
0.000126	0.070000	0.006200
0.000138	0.070000	0.006100
0.000150	0.070000	0.006100
0.000159	0.070000	0.006100
0.000171	0.070000	0.006100
0.000182	0.070000	0.006100
0.000194	0.070000	0.006200
0.000205	0.070000	0.006200
0.000217	0.070000	0.006200
0.000229	0.070000	0.006100
0.000241	0.070000	0.006100
0.000252	0.070000	0.006100
0.000264	0.070000	0.006100
0.000275	0.070000	0.006100
0.000289	0.070000	0.006100
0.000298	0.070000	0.006100
0.000310	0.070000	0.006100
0.000321	0.070000	0.006100
0.000333	0.070000	0.006100
0.000344	0.070000	0.006200
0.000356	0.070000	0.006200
0.000368	0.070000	0.006100
0.000380	0.070000	0.006100
0.000391	0.070000	0.006100
0.000403	0.070000	0.006100
0.000414	0.070000	0.006100
0.000426	0.070000	0.006100
0.000438	0.070000	0.006100
0.000449	8.440000	0.159400
0.000461	8.440000	0.159400
0.000473	8.440000	0.159400
0.000486	11.220000	0.165500
0.000496	11.220000	0.165500
0.000508	11.220000	0.165500
0.000519	3.430000	0.053500
0.000531	3.430000	0.053500
0.000543	3.000000	0.047300
0.000555	3.000000	0.047300
0.000566	3.000000	0.047300
0.000577	3.140000	0.049400
0.000589	3.140000	0.049400
0.000600	3.140000	0.049400
0.000612	3.140000	0.049400
0.000625	1.850000	0.035800
0.000636	1.850000	0.035800
0.000647	1.850000	0.035800
0.000658	0.070000	0.006100
0.000670	0.070000	0.006100
0.000681	0.070000	0.006100
0.000693	0.070000	0.006100
0.000704	0.070000	0.006100
0.000717	0.070000	0.006100
0.000763	0.070000	0.006100
0.000765	0.140000	0.006100
0.000787	0.140000	0.006100
0.000789	0.070000	0.006200
0.000797	0.070000	0.006200
0.000809	0.070000	0.006200
0.000821	0.070000	0.006200
0.000832	0.070000	0.006100
0.000844	0.070000	0.006100
0.000856	0.070000	0.006100
0.000868	0.070000	0.006100
0.000879	0.070000	0.006100
0.000891	0.070000	0.006200
0.000902	0.070000	0.006200
0.000914	0.070000	0.006200
0.000925	0.070000	0.006100
0.000937	0.070000	0.006100
0.000949	0.070000	0.006100
0.000960	0.070000	0.006100
0.000971	0.070000	0.006200
0.000983	0.070000	0.006200
0.000995	0.070000	0.006200
0.001006	0.070000	0.006200
0.001019	0.070000	0.006200
0.001030	0.070000	0.006100
0.001043	0.070000	0.006100
0.001053	0.070000	0.006100
0.001064	0.070000	0.006100
0.001077	0.070000	0.006100
0.001088	0.070000	0.006100
0.001100	0.070000	0.006100
0.001111	0.070000	0.006100
0.001123	0.070000	0.006100
0.001134	0.070000	0.006100
0.001145	0.070000	0.006100
0.001157	0.070000	0.006100
0.001168	0.070000	0.006100
0.001180	0.070000	0.006100
0.001193	0.070000	0.006100
0.001204	0.070000	0.006100
0.001215	0.070000	0.006100
0.001227	0.070000	0.006100
0.001238	3.290000	0.039400
0.001250	3.290000	0.039400
0.001261	3.290000	0.039400
0.001273	7.360000	0.123900
0.001285	7.360000	0.123900
0.001296	7.360000	0.123900
0.001308	7.360000	0.123900
0.001319	15.870000	0.222100
0.001331	15.870000	0.222100
0.001344	15.870000	0.222100
0.001354	12.730000	0.159100
0.001366	12.730000	0.159100
0.001378	11.010000	0.136300
0.001389	11.010000	0.136300
0.001400	11.010000	0.136300
0.001412	10.510000	0.132100
0.001425	10.510000	0.132100
0.001436	10.510000	0.132100
0.001447	10.510000	0.131900
0.001458	10.510000	0.131900
0.001470	10.510000	0.131900
0.001482	10.510000	0.131900
0.001494	10.290000	0.130300
0.001505	10.290000	0.130300
0.001516	10.290000	0.130300
0.001528	8.650000	0.115400
0.001540	8.650000	0.115400
0.001551	4.570000	0.068300
0.001563	4.570000	0.068300
0.001574	4.570000	0.068300
0.001586	4.640000	0.068700
0.001597	4.640000	0.068700
0.001609	4.640000	0.068700
0.001620	4.570000	0.068900
0.001632	4.570000	0.068900
0.001644	4.570000	0.068900
0.001655	4.570000	0.068900
0.001667	4.640000	0.068800
0.001678	4.640000	0.068800
0.001690	4.640000	0.068800
0.001703	4.570000	0.069000
0.001714	4.570000	0.069000
0.001725	4.570000	0.069400
0.001736	4.570000	0.069400
0.001748	4.570000	0.069400
0.001761	4.570000	0.068400
0.001772	4.570000	0.068400
0.001783	4.570000	0.068400
0.001830	12.010000	0.187100
0.001832	11.870000	0.143200
0.001842	11.870000	0.143200
0.002096	11.870000	0.143200
0.002099	19.660000	0.118700
0.002108	19.740000	0.118400
0.002120	19.740000	0.118400
0.002131	19.740000	0.118400
0.002143	19.590000	0.118000
0.002154	19.590000	0.118000
0.002166	19.590000	0.118000
0.002178	19.590000	0.118000
0.002189	19.740000	0.118100
0.002201	19.740000	0.118100
0.002212	15.020000	0.094800
0.002224	15.020000	0.094800
0.002236	15.020000	0.094800
0.002247	15.020000	0.094600
0.002259	15.020000	0.094600
0.002270	15.020000	0.094600
0.002282	14.940000	0.094200
0.002293	14.940000	0.094200
0.002305	14.940000	0.094200
0.002318	14.940000	0.094200
0.002329	14.940000	0.094200
0.002340	14.940000	0.094200
0.002351	14.940000	0.094200
0.002363	14.940000	0.094300
0.002375	14.940000	0.094300
0.002386	14.940000	0.094200
0.002398	14.940000	0.094200
0.002409	14.940000	0.094200
0.002421	28.610000	0.269900
0.002433	28.610000	0.269900
0.002444	28.610000	0.269900
0.002456	45.410000	0.444600
0.002467	45.410000	0.444600
0.002479	45.410000	0.444600
0.002490	45.410000	0.444600
0.002502	14.870000	0.094200
0.002514	14.870000	0.094200
0.002526	14.870000	0.094200
0.002537	33.400000	0.295700
0.002550	33.400000	0.295700
0.002560	53.640000	0.536500
0.002572	53.640000	0.536500
0.002595	53.640000	0.536500
0.002597	53.780000	0.541500
0.002607	53.780000	0.541500
0.002618	53.780000	0.541500
0.002630	53.710000	0.538800
0.002641	53.710000	0.538800
0.002653	53.710000	0.538800
0.002665	53.710000	0.535900
0.002676	53.710000	0.535900
0.002688	53.710000	0.535900
0.002700	53.710000	0.535900
0.002711	50.640000	0.607600
0.002722	50.640000	0.607600
0.002734	51.640000	0.618700
0.002745	51.640000	0.618700
0.002760	51.640000	0.618700
0.002768	51.780000	0.619700
0.002780	51.780000	0.619700
0.002792	51.780000	0.619700
0.002803	51.850000	0.618400
0.002815	51.850000	0.618400
0.002827	51.850000	0.618400
0.002838	51.850000	0.618400
0.002849	51.710000	0.618600
0.002861	51.710000	0.618600
0.002873	51.780000	0.616900
0.002885	51.780000	0.616900
0.002896	51.780000	0.616900
0.002910	51.710000	0.614900
0.002921	51.710000	0.614900
0.002966	51.710000	0.614900
0.002968	51.780000	0.615500
0.002989	51.710000	0.619100
0.002991	51.710000	0.619100
0.003001	51.710000	0.619100
0.003011	51.710000	0.619100
0.003023	51.710000	0.617500
0.003035	51.710000	0.617500
0.003047	51.710000	0.614700
0.003058	51.710000	0.614700
0.003070	51.710000	0.614700
0.003081	51.780000	0.616400
0.003093	51.780000	0.616400
0.003105	51.780000	0.616400
0.003116	51.640000	0.615100
0.003128	51.640000	0.615100
0.003140	51.640000	0.615100
0.003151	51.710000	0.613200
0.003163	51.710000	0.613200
0.003174	51.710000	0.613200
0.003222	51.710000	0.613200
0.003224	51.710000	0.617900
0.003232	51.710000	0.617900
0.003244	51.710000	0.617900
0.003255	51.710000	0.617400
0.003267	51.710000	0.617400
0.003279	51.710000	0.617400
0.003290	2208.130000	9.447700
0.003302	2208.130000	9.447700
0.003325	2208.130000	9.447700
0.003328	2194.900000	9.391800
0.003337	2194.900000	9.391800
0.003349	2194.900000	9.391800
0.003360	2169.580000	9.280700
0.003372	2169.580000	9.280700
0.003383	2169.580000	9.280700
0.003395	2165.150000	9.268900
0.003406	2165.150000	9.268900
0.003418	2165.150000	9.268900
0.003429	2152.700000	9.242700
0.003441	2152.700000	9.242700
0.003452	2152.700000	9.242700
0.003464	2171.800000	9.337900
0.003475	2171.800000	9.337900
0.003487	2171.800000	9.337900
0.003499	2171.800000	9.337900
0.003510	2167.720000	9.315900
0.003522	2167.720000	9.315900
0.003533	2149.340000	9.218500
0.003545	2149.340000	9.218500
0.003557	2149.340000	9.218500
0.003568	2152.060000	9.218100
0.003580	2152.060000	9.218100
0.003591	2152.060000	9.218100
0.003603	2152.270000	9.215700
0.003614	2152.270000	9.215700
0.003626	2152.270000	9.215700
0.003638	2154.630000	9.219200
0.003649	2154.630000	9.219200
0.003661	2154.630000	9.219200
0.003672	2154.630000	9.219200
0.003684	2156.350000	9.220500
0.003696	2156.350000	9.220500
0.003708	2149.270000	9.206200
0.003719	2149.270000	9.206200
0.003730	2149.270000	9.206200
0.003742	2147.050000	9.201100
0.003754	2147.050000	9.201100
0.003765	2147.050000	9.201100
0.003777	2142.400000	9.190700
0.003788	2142.400000	9.190700
0.003800	2142.400000	9.190700
0.003812	2140.040000	9.184200
0.003823	2140.040000	9.184200
0.003835	2140.040000	9.184200
0.003846	2146.910000	9.195000
0.003858	2146.910000	9.195000
0.003869	2146.910000	9.195000
0.003881	2153.560000	9.204900
0.003893	2153.560000	9.204900
0.003904	2153.560000	9.204900
0.003916	2153.560000	9.203300
0.003927	2153.560000	9.203300
0.003939	2153.560000	9.203300
0.003950	2153.920000	9.202500
0.003962	2153.920000	9.202500
0.003973	2153.920000	9.202500
0.003985	2153.920000	9.202500
0.003997	2152.910000	9.199300
0.004011	2152.910000	9.199300
0.004020	2152.840000	9.197300
0.004032	2152.840000	9.197300
0.004043	2152.840000	9.197300
0.004055	2151.340000	9.193700
0.004066	2151.340000	9.193700
0.004078	2151.340000	9.193700
0.004092	2167.360000	9.263200
0.004101	2167.360000	9.263200
0.004112	2167.360000	9.263200
0.004124	2177.660000	9.324900
0.004136	2177.660000	9.324900
0.004148	2177.660000	9.324900
0.004159	2177.660000	9.324900
0.004170	2182.450000	9.350400
0.004183	2182.450000	9.350400
0.004194	2180.450000	9.346400
0.004205	2180.450000	9.346400
0.004217	2180.450000	9.346400
0.004229	2174.440000	9.333900
0.004240	2174.440000	9.333900
0.004252	2174.440000	9.333900
0.004263	2173.010000	9.329300
0.004275	2173.010000	9.329300
0.004286	2173.010000	9.329300
0.004298	2170.800000	9.324200
0.004310	2170.800000	9.324200
0.004357	2170.800000	9.324200
0.004359	2172.940000	9.324500
0.004367	2172.940000	9.324500
0.004379	2172.940000	9.324500
0.004391	2172.940000	9.324500
0.004402	2175.020000	9.326100
0.004414	2175.020000	9.326100
0.004425	2175.020000	9.326100
0.004437	2178.310000	9.328200
0.004449	2178.310000	9.328200
0.004460	2178.310000	9.328200
0.004471	2178.310000	9.328200
0.004483	2175.870000	9.323000
0.004494	2175.870000	9.323000
0.004506	2177.020000	9.323100
0.004517	2177.020000	9.323100
0.004529	2177.020000	9.323100
0.004541	2177.300000	9.321600
0.004553	2177.300000	9.321600
0.004564	2177.300000	9.321600
0.004576	2179.160000	9.322900
0.004588	2179.160000	9.322900
0.004599	2179.160000	9.322900
0.004646	2178.160000	9.319500
0.004648	2174.940000	9.312000
0.004657	2174.940000	9.312000
0.004669	2174.940000	9.312000
0.004680	2163.710000	9.289500
0.004692	2163.710000	9.289500
0.004704	2163.710000	9.289500
0.004715	2155.780000	9.275600
0.004726	2155.780000	9.275600
0.004739	2155.780000	9.275600
0.004750	2150.630000	9.264800
0.004762	2150.630000	9.264800
0.004773	2150.630000	9.264800
0.004785	2147.480000	9.258400
0.004796	2147.480000	9.258400
0.004808	2147.480000	9.258400
0.004819	2140.970000	9.230500
0.004830	2140.970000	9.230500
0.004842	2140.970000	9.230500
0.004855	2168.290000	9.284600
0.004865	2168.290000	9.284600
0.004877	2168.290000	9.284600
0.004890	2151.700000	9.213200
0.004900	2151.700000	9.213200
0.004915	2151.700000	9.213200
0.004923	2139.900000	9.155600
0.004935	2139.900000	9.155600
0.004946	2139.900000	9.155600
0.004960	2139.470000	9.151600
0.005215	2139.470000	9.151600
0.005218	2124.020000	9.097300
0.005226	2124.020000	9.097300
0.005236	2121.800000	9.090900
0.005352	2121.800000	9.090900
0.005354	2120.660000	9.085000
0.005365	2120.660000	9.085000
0.005387	2121.730000	9.085600
0.005389	2121.730000	9.085600
0.005398	2121.730000	9.085600
0.005410	2123.950000	9.089100
0.005421	2123.950000	9.089100
0.005433	2123.950000	9.089100
0.005444	2126.160000	9.090200
0.005456	2126.160000	9.090200
0.005467	2126.160000	9.090200
0.005480	2124.520000	9.085700
0.005491	2124.520000	9.085700
0.005502	2124.520000	9.085700
0.005514	2125.230000	9.087100
0.005526	2125.230000	9.087100
0.005549	2125.230000	9.087100
0.005587	2128.020000	9.088800
0.005590	2128.020000	9.088100
0.005595	2128.020000	9.088100
0.005606	2128.020000	9.088100
0.005653	2128.020000	9.088100
0.005669	2156.130000	9.217000
0.005775	2156.130000	9.217000
0.005778	2156.630000	9.234500
0.005792	2152.200000	9.223900
0.005830	2152.200000	9.223900
0.005844	2152.200000	9.223900
0.005847	2152.200000	9.223900
0.005884	2152.200000	9.223900
0.005887	2152.410000	9.221500
0.005895	2151.700000	9.218000
0.005907	2151.700000	9.218000
0.005919	2151.700000	9.218000
0.005932	2149.480000	9.211900
0.005942	2149.480000	9.211900
0.005955	2149.480000	9.211900
0.005967	2148.270000	9.208900
0.005977	2148.270000	9.208900
0.005989	2148.270000	9.208900
0.006001	2147.980000	9.206000
0.006013	2147.980000	9.206000
0.006024	2147.980000	9.206000
0.006037	2142.970000	9.194100
0.006047	2142.970000	9.194100
0.006095	2142.970000	9.194100
0.006099	2143.760000	9.195600
0.006108	2143.760000	9.192300
0.006118	2143.760000	9.192300
0.006163	2143.760000	9.192300
0.006167	2143.190000	9.190400
0.006174	2140.330000	9.183700
0.006185	2140.330000	9.183700
0.006197	2140.330000	9.183700
0.006211	2141.260000	9.183100
0.006221	2141.260000	9.183100
0.006235	2141.260000	9.183100
0.006261	2149.050000	9.195800
0.006265	2149.050000	9.195800
0.006268	2149.050000	9.195800
0.006290	2151.560000	9.198200
0.006293	2151.560000	9.198200
0.006336	2151.560000	9.198200
0.006341	2149.620000	9.192700
0.006350	2146.190000	9.185100
0.006359	2146.190000	9.185100
0.006371	2146.190000	9.185100
0.006386	2140.900000	9.175600
0.006394	2140.900000	9.175600
0.006409	2140.900000	9.175600
0.006418	2131.960000	9.136600
0.006430	2131.960000	9.136600
0.006441	2131.960000	9.136600
0.006453	2126.160000	9.099900
0.006465	2126.160000	9.099900
0.006477	2126.160000	9.099900
0.006488	2115.010000	9.045800
0.006499	2115.010000	9.045800
0.006512	2115.010000	9.045800
0.006525	2116.010000	9.046100
0.006534	2116.010000	9.046100
0.006546	2116.010000	9.046100
0.006556	2116.010000	9.046100
0.006568	2116.010000	9.046100
0.006580	2136.960000	9.143300
0.006591	2136.960000	9.143300
0.006603	2136.960000	9.143300
0.006617	2136.960000	9.143300
0.006626	2138.540000	9.149100
0.006640	2138.540000	9.149100
0.006650	2138.540000	9.149100
0.006662	2107.570000	9.008400
0.006672	2107.570000	9.008400
0.006684	2107.570000	9.008400
0.006695	2107.570000	9.005100
0.006707	2107.570000	9.005100
0.006719	2107.570000	9.005100
0.006730	2107.210000	9.002800
0.006742	2107.210000	9.002800
0.006754	2107.210000	9.002800
0.006766	2106.070000	8.998700
0.006776	2106.070000	8.998700
0.006788	2106.070000	8.998700
0.006800	2106.280000	8.999000
0.006812	2106.280000	8.999000
0.006823	2106.280000	8.999000
0.006835	2102.490000	8.987900
0.006846	2102.490000	8.987900
0.006857	2102.490000	8.987900
0.006869	2100.990000	8.985000
0.006883	2100.990000	8.985000
0.006893	2093.050000	8.969800
0.006904	2093.050000	8.969800
0.006915	2093.050000	8.969800
0.006927	2093.050000	8.969800
0.006938	2080.030000	8.943900
0.006951	2080.030000	8.943900
0.006962	2080.030000	8.943900
0.006973	2077.100000	8.938000
0.006986	2077.100000	8.938000
0.006997	2077.100000	8.938000
0.007008	2075.090000	8.932800
0.007020	2075.090000	8.932800
0.007031	2075.090000	8.932800
0.007045	2077.380000	8.935600
0.007055	2077.380000	8.935600
0.007066	2077.380000	8.935600
0.007077	2077.740000	8.933600
0.007089	2077.740000	8.933600
0.007100	2077.740000	8.933600
0.007112	2085.540000	8.946600
0.007125	2085.540000	8.946600
0.007136	2085.540000	8.946600
0.007147	2081.750000	8.935200
0.007158	2081.750000	8.935200
0.007173	2081.750000	8.935200
0.007182	2087.250000	8.946300
0.007194	2087.250000	8.946300
0.007207	2087.250000	8.946300
0.007217	2090.400000	8.959200
0.007228	2090.400000	8.959200
0.007239	2090.400000	8.959200
0.007251	2124.590000	9.089600
0.007262	2124.590000	9.089600
0.007320	2124.590000	9.089600
0.007323	2126.660000	9.113100
0.007332	2126.660000	9.113100
0.007343	2126.660000	9.113100
0.007355	2129.170000	9.116000
0.007378	2129.170000	9.116000
0.007381	2129.310000	9.114500
0.007390	2129.310000	9.114500
0.007402	2129.310000	9.114500
0.007413	2129.310000	9.114500
0.007436	2129.240000	9.112900
0.007440	2129.240000	9.112900
0.007450	2129.240000	9.112900
0.007461	2125.950000	9.104600
0.007472	2125.950000	9.104600
0.007483	2125.950000	9.104600
0.007494	2124.950000	9.101500
0.007507	2124.950000	9.101500
0.007519	2124.950000	9.101500
0.007529	2123.450000	9.097100
0.007541	2123.450000	9.097100
0.007552	2123.450000	9.094300
0.007565	2123.450000	9.094300
0.007580	2123.450000	9.094300
0.007590	2123.450000	9.094300
0.007599	2126.310000	9.098100
0.007611	2126.310000	9.098100
0.007622	2126.310000	9.098100
0.007634	2125.310000	9.095000
0.007645	2125.310000	9.095000
0.007656	2125.310000	9.095000
0.007668	2123.020000	9.088500
0.007683	2123.020000	9.088500
0.007695	2123.020000	9.088500
0.007704	2125.380000	9.092000
0.007715	2125.380000	9.092000
0.007728	2121.010000	9.081600
0.007737	2121.010000	9.081600
0.007750	2121.010000	9.081600
0.007762	2121.010000	9.081600
0.007772	2112.070000	9.063900
0.007784	2112.070000	9.063900
0.007795	2112.070000	9.063900
0.007812	2108.140000	9.056200
0.007821	2108.140000	9.056200
0.007832	2108.140000	9.056200
0.007841	2107.500000	9.053600
0.007854	2107.500000	9.053600
0.007866	2101.990000	9.042100
0.007877	2101.990000	9.042100
0.007890	2101.990000	9.042100
0.007899	2101.990000	9.042100
0.007911	2100.060000	9.036200
0.007922	2100.060000	9.036200
0.007934	2100.060000	9.036200
0.007946	2115.360000	9.063200
0.007958	2115.360000	9.063200
0.007969	2115.360000	9.063200
0.007980	2112.140000	9.039400
0.007992	2112.140000	9.039400
0.008004	2112.140000	9.039400
0.008015	2112.140000	9.039400
0.008027	2112.140000	9.039400
0.008038	29.540000	0.367300
0.008050	29.540000	0.367300
0.008061	29.540000	0.367300
0.008073	29.540000	0.367300
0.008085	29.180000	0.359800
0.008097	29.180000	0.359800
0.008109	29.180000	0.359800
0.008120	29.110000	0.360000
0.008131	29.110000	0.360000
0.008143	29.110000	0.360000
0.008154	44.480000	0.503200
0.008166	44.480000	0.503200
0.008177	44.480000	0.503200
0.008189	44.200000	0.508300
0.008200	44.200000	0.508300
0.008212	44.200000	0.508300
0.008225	27.030000	0.334900
0.008237	27.030000	0.334900
0.008248	27.030000	0.334900
0.008259	26.240000	0.322000
0.008271	26.240000	0.322000
0.008282	26.240000	0.322000
0.008294	26.240000	0.322800
0.008306	26.240000	0.322800
0.008320	26.240000	0.322800
0.008330	26.170000	0.314900
0.008340	26.170000	0.314900
0.008354	26.170000	0.314900
0.008363	26.170000	0.316300
0.008374	26.170000	0.316300
0.008386	26.170000	0.316300
0.008397	26.170000	0.316300
0.008409	26.170000	0.316300
0.008421	26.170000	0.316300
0.008432	26.170000	0.317000
0.008444	26.170000	0.317000
0.008455	26.170000	0.317000
0.008467	26.170000	0.319600
0.008479	26.170000	0.319600
0.008492	26.170000	0.319600
0.008503	26.170000	0.320200
0.008514	26.170000	0.320200
0.008525	26.100000	0.320100
0.008536	26.100000	0.320100
0.008549	26.100000	0.320100
0.008562	26.100000	0.321300
0.008572	26.100000	0.321300
0.008585	26.100000	0.321300
0.008594	26.100000	0.321300
0.008606	26.100000	0.322100
0.008618	26.100000	0.322100
0.008629	26.100000	0.322100
0.008641	26.100000	0.320800
0.008654	26.100000	0.320800
0.008664	26.100000	0.320800
0.008676	26.100000	0.320000
0.008688	26.100000	0.320000
0.008698	26.100000	0.323700
0.008711	26.100000	0.323700
0.008722	26.100000	0.323700
0.008733	26.100000	0.323700
0.008745	26.100000	0.323700
0.008757	26.100000	0.323700
0.008768	26.100000	0.323700
0.008779	41.190000	0.466700
0.008791	41.190000	0.466700
0.008803	41.190000	0.466700
0.008817	33.970000	0.372600
0.008830	33.970000	0.372600
0.008838	31.970000	0.372600
0.008849	31.970000	0.347200
0.008872	31.970000	0.347200
0.008874	32.610000	0.357800
0.008884	32.610000	0.357800
0.008895	32.610000	0.357800
0.008907	32.610000	0.357800
0.008919	31.610000	0.346500
0.008930	31.610000	0.346500
0.008942	31.610000	0.346500
0.008954	30.390000	0.352500
0.008965	30.390000	0.352500
0.008977	30.390000	0.352500
0.008988	26.100000	0.324900
0.009000	26.100000	0.324900
