#Measurement data
#2022-08-22 14:42:21

#Time (days)	Power (W)	Current (A)
0.00000171	35.540000	0.272000
0.00001495	35.540000	0.272000
0.00006157	33.400000	0.261400
0.00014492	15.090000	0.083500
0.00014709	15.090000	0.083500
0.00016605	15.090000	0.083500
0.00017983	15.090000	0.083500
0.00021675	15.090000	0.083400
0.00021875	15.090000	0.083600
0.00025843	15.090000	0.083600
0.00029528	15.090000	0.083100
0.00029733	15.020000	0.083100
0.00037462	15.020000	0.082800
0.00049271	15.020000	0.082900
0.00049492	15.020000	0.084400
0.00051323	15.020000	0.084400
0.00052678	14.870000	0.086700
0.00052865	14.870000	0.086700
0.00054788	14.870000	0.086700
0.00054998	14.870000	0.086700
0.00059424	14.870000	0.086700
0.00063811	14.940000	0.086800
0.00067532	15.090000	0.082500
0.00071214	15.090000	0.082500
0.00086528	15.090000	0.082500
0.00086738	15.090000	0.082200
0.00087183	15.020000	0.082300
0.00088339	15.020000	0.082300
0.00089508	15.020000	0.082300
0.00090671	15.020000	0.082300
0.00091811	15.020000	0.081900
0.00092975	15.020000	0.081900
0.00094131	15.090000	0.081900
0.00095315	15.090000	0.082200
0.00096490	15.090000	0.082200
0.00097682	15.020000	0.082100
0.00098831	15.020000	0.082100
0.00099992	15.020000	0.082100
0.00101153	25.820000	0.218700
0.00102278	25.820000	0.218700
0.00104686	25.820000	0.218700
0.00104922	17.800000	0.149800
0.00105741	17.800000	0.149800
0.00110465	17.800000	0.149800
0.00110681	16.370000	0.139200
0.00114981	17.450000	0.147100
0.00115192	36.040000	0.346600
0.00116130	36.040000	0.346600
0.00120785	36.040000	0.346600
0.00120969	55.710000	0.461500
0.00121910	56.140000	0.462100
0.00123075	56.140000	0.462100
0.00124226	56.140000	0.462100
0.00125378	56.140000	0.462100
0.00126567	54.860000	0.476100
0.00127699	54.860000	0.476100
0.00128869	56.000000	0.473700
0.00130010	56.000000	0.473700
0.00131171	56.000000	0.473700
0.00132333	54.140000	0.450300
0.00133505	54.140000	0.450300
0.00134649	54.140000	0.450300
0.00135804	52.280000	0.457400
0.00136964	52.280000	0.457400
0.00138124	52.280000	0.457400
0.00139279	52.280000	0.457400
0.00140424	54.710000	0.477600
0.00141591	54.710000	0.477600
0.00142757	54.710000	0.477600
0.00143936	54.710000	0.477600
0.00148552	54.710000	0.477600
0.00148785	57.290000	0.492500
0.00149722	58.650000	0.505900
0.00150854	58.650000	0.505900
0.00152015	58.650000	0.505900
0.00153172	60.860000	0.526800
0.00154309	60.860000	0.526800
0.00155476	60.860000	0.526800
0.00156633	60.860000	0.526800
0.00157823	63.300000	0.541100
0.00158949	63.300000	0.541100
0.00160133	64.010000	0.543000
0.00161259	64.010000	0.543000
0.00162426	64.010000	0.543000
0.00163567	63.650000	0.548400
0.00164728	63.650000	0.548400
0.00165892	63.650000	0.548400
0.00167052	63.220000	0.551700
0.00168231	63.220000	0.551700
0.00172896	63.220000	0.551700
0.00183541	63.720000	0.545500
0.00183788	56.570000	0.472300
0.00194959	51.210000	0.423000
0.00195123	50.850000	0.439000
0.00196003	50.850000	0.439000
0.00197188	50.850000	0.439000
0.00198328	55.860000	0.407800
0.00199484	55.860000	0.407800
0.00200674	55.860000	0.407800
0.00201811	47.700000	0.370400
0.00202966	47.700000	0.370400
0.00204106	47.700000	0.370400
0.00205279	47.700000	0.370400
0.00206427	48.630000	0.403300
0.00207593	48.630000	0.403300
0.00208750	48.630000	0.403300
0.00209920	54.140000	0.461800
0.00211069	54.140000	0.461800
0.00212226	55.930000	0.466600
0.00213409	55.930000	0.466600
0.00214538	55.930000	0.466600
0.00216230	55.930000	0.466600
0.00218159	55.930000	0.466600
0.00218345	55.930000	0.466600
0.00219152	46.990000	0.404700
0.00220303	46.990000	0.404700
0.00221490	46.990000	0.404700
0.00222656	46.990000	0.404700
0.00223933	47.200000	0.406200
0.00224936	47.200000	0.406200
0.00226113	47.200000	0.406200
0.00227280	49.200000	0.424600
0.00228421	49.200000	0.424600
0.00229594	50.560000	0.436200
0.00230770	50.560000	0.436200
0.00231897	50.560000	0.436200
0.00233053	52.140000	0.455700
0.00234237	52.140000	0.455700
0.00235368	52.140000	0.455700
0.00236522	54.350000	0.473000
0.00237689	54.350000	0.473000
0.00238847	54.350000	0.473000
0.00240003	54.350000	0.473000
0.00241294	56.070000	0.484500
0.00242483	56.070000	0.484500
0.00243539	58.570000	0.504000
0.00244781	58.570000	0.504000
0.00245858	58.570000	0.504000
0.00248163	61.010000	0.523900
0.00248389	61.010000	0.523900
0.00253922	61.010000	0.523900
0.00254127	64.440000	0.556800
0.00255064	64.440000	0.556800
0.00256231	64.440000	0.556800
0.00257382	64.440000	0.556800
0.00258530	64.580000	0.561200
0.00263168	64.580000	0.561200
0.00263382	65.080000	0.559400
0.00264332	65.230000	0.564200
0.00265484	65.230000	0.564200
0.00266646	65.230000	0.564200
0.00268963	65.150000	0.562000
0.00269185	65.150000	0.562000
0.00270120	65.150000	0.562000
0.00271285	65.150000	0.562000
0.00273600	69.590000	0.570600
0.00277748	61.510000	0.515200
0.00277978	61.510000	0.515200
0.00278214	61.510000	0.515200
0.00280535	61.510000	0.515200
0.00281936	61.510000	0.515200
0.00282160	64.580000	0.548600
0.00286307	64.580000	0.548600
0.00307366	64.580000	0.547200
0.00307583	64.150000	0.531300
0.00311837	64.150000	0.531300
0.00312057	69.660000	0.596600
0.00314122	70.230000	0.604200
0.00314336	70.230000	0.604200
0.00315258	70.230000	0.604200
0.00316414	70.160000	0.597100
0.00317565	70.160000	0.597100
0.00318733	70.160000	0.597100
0.00319889	70.160000	0.597100
0.00321044	70.090000	0.602800
0.00322234	70.090000	0.602800
0.00323362	70.090000	0.602800
0.00324527	70.160000	0.607000
0.00329243	70.160000	0.607000
0.00329449	69.880000	0.605100
0.00330310	69.880000	0.601100
0.00336093	69.880000	0.601100
0.00336299	69.880000	0.598800
0.00337244	69.880000	0.598800
0.00338425	69.800000	0.598700
0.00339547	69.800000	0.598700
0.00340727	69.730000	0.599100
0.00341888	69.730000	0.599100
0.00343037	69.730000	0.599100
0.00344178	69.880000	0.601800
0.00345361	69.880000	0.601800
0.00346508	69.880000	0.601800
0.00347670	69.880000	0.597000
0.00348822	69.880000	0.597000
0.00349970	69.880000	0.597000
0.00351259	69.800000	0.595500
0.00352381	69.800000	0.595500
0.00353515	69.800000	0.595500
0.00354694	69.800000	0.595500
0.00355860	69.800000	0.591400
0.00356992	69.800000	0.591400
0.00358208	69.950000	0.598300
0.00359270	69.950000	0.598300
0.00363885	69.950000	0.598300
0.00364093	69.950000	0.598300
0.00366220	69.800000	0.601800
0.00367627	69.800000	0.601800
0.00367845	69.800000	0.601800
0.00369675	65.730000	0.550700
0.00369914	65.730000	0.550700
0.00370819	65.730000	0.550700
0.00371993	65.730000	0.550700
0.00373142	56.140000	0.466100
0.00374307	56.140000	0.466100
0.00375451	61.860000	0.536400
0.00376640	61.860000	0.536400
0.00377753	61.860000	0.536400
0.00378925	62.510000	0.551500
0.00380078	62.510000	0.551500
0.00381291	62.510000	0.551500
0.00382470	62.370000	0.546300
0.00384742	62.370000	0.546300
0.00384946	62.370000	0.546300
0.00390606	62.370000	0.546300
0.00390824	62.290000	0.534500
0.00391682	62.290000	0.534500
0.00393999	62.290000	0.530000
0.00398858	62.290000	0.530000
0.00399130	63.150000	0.538400
0.00400988	58.570000	0.487200
0.00401190	58.570000	0.487200
0.00405559	58.570000	0.487200
0.00405773	64.650000	0.541400
0.00406719	69.950000	0.598800
0.00407869	69.950000	0.598800
0.00412516	69.950000	0.598800
0.00412728	69.950000	0.598800
0.00414859	69.880000	0.608300
0.00415072	69.880000	0.608300
0.00416008	69.880000	0.608300
0.00417177	69.800000	0.601600
0.00418319	69.800000	0.601600
0.00419514	69.800000	0.601600
0.00424116	69.800000	0.601600
0.00424336	69.950000	0.595700
0.00429898	69.950000	0.595700
0.00430089	69.800000	0.589200
0.00431065	70.020000	0.599500
0.00432255	70.020000	0.599500
0.00433410	70.020000	0.599500
0.00434560	70.020000	0.599500
0.00435741	70.020000	0.599500
0.00440329	70.020000	0.599500
0.00441679	69.590000	0.603600
0.00441880	69.590000	0.603600
0.00442631	69.590000	0.603600
0.00447274	69.590000	0.603600
0.00447458	69.660000	0.601200
0.00448470	69.520000	0.601100
0.00453103	69.520000	0.601100
0.00456785	69.370000	0.600200
0.00456970	69.370000	0.600000
0.00457704	69.370000	0.600000
0.00460097	69.370000	0.600000
0.00463727	69.370000	0.600000
0.00463909	69.660000	0.604600
0.00464659	69.660000	0.604600
0.00469258	66.510000	0.557000
0.00472889	62.080000	0.540900
0.00473113	64.370000	0.558500
0.00473905	64.370000	0.558500
0.00479736	64.220000	0.556400
0.00479919	63.800000	0.554100
0.00485753	63.800000	0.551700
0.00485940	63.800000	0.551700
0.00491302	63.870000	0.550800
0.00491466	63.720000	0.549000
0.00492402	63.720000	0.549000
0.00494760	62.940000	0.531800
0.00494942	62.940000	0.531800
0.00495876	62.940000	0.531800
0.00497028	63.720000	0.535200
0.00500603	63.720000	0.535200
0.00500808	69.230000	0.596800
0.00501694	69.230000	0.596800
0.00504006	69.450000	0.598700
0.00514652	69.450000	0.598700
0.00518319	69.160000	0.594300
0.00518530	68.950000	0.588500
0.00526028	68.950000	0.588500
0.00526273	69.020000	0.594600
0.00527186	69.020000	0.594600
0.00528343	69.160000	0.591000
0.00532978	69.160000	0.591000
0.00533196	69.300000	0.591600
0.00534204	69.300000	0.591600
0.00535355	69.300000	0.591600
0.00537689	69.160000	0.592500
0.00539091	68.950000	0.590500
0.00539309	68.950000	0.590500
0.00541127	68.950000	0.590500
0.00542530	68.950000	0.591700
0.00543898	68.950000	0.591700
0.00545250	68.950000	0.591700
0.00545469	68.660000	0.589700
0.00545762	68.660000	0.589700
0.00546904	68.660000	0.589700
0.00549223	68.730000	0.593300
0.00549417	68.730000	0.593300
0.00555036	68.730000	0.593300
0.00555244	68.730000	0.594100
0.00557397	68.660000	0.599700
0.00561090	68.660000	0.599700
0.00565926	64.300000	0.542500
0.00591661	60.790000	0.533300
0.00591861	56.430000	0.462900
0.00595584	56.430000	0.462900
0.00599277	67.660000	0.582200
0.00600662	67.660000	0.582200
0.00600882	67.660000	0.582200
0.00604841	68.660000	0.592700
0.00605067	68.590000	0.592000
0.00606015	68.590000	0.592000
0.00607169	68.590000	0.592000
0.00609473	68.520000	0.588300
0.00609691	68.520000	0.588300
0.00610649	68.520000	0.588300
0.00611803	68.440000	0.585900
0.00624530	68.440000	0.585900
0.00635169	68.370000	0.590200
0.00659685	68.520000	0.596500
0.00663370	64.800000	0.545300
0.00663591	61.940000	0.527700
0.00663861	63.300000	0.540500
0.00665012	63.300000	0.540500
0.00666174	63.300000	0.534500
0.00667341	63.300000	0.534500
0.00668499	63.300000	0.534500
0.00669648	63.300000	0.534500
0.00670815	63.220000	0.536000
0.00672024	63.220000	0.536000
0.00673204	63.220000	0.536000
0.00677735	63.510000	0.544700
0.00677918	63.370000	0.550100
0.00678903	63.370000	0.550100
0.00680067	63.370000	0.550100
0.00681204	63.300000	0.551700
0.00682399	63.300000	0.551700
0.00683553	63.300000	0.551700
0.00684704	62.650000	0.533300
0.00685865	62.650000	0.533300
0.00687032	62.650000	0.533300
0.00688169	56.860000	0.468300
0.00689331	56.860000	0.468300
0.00690520	56.860000	0.468300
0.00691679	68.160000	0.584300
0.00693981	68.160000	0.584300
0.00697683	68.160000	0.584300
0.00697902	68.660000	0.594900
0.00698584	68.520000	0.591400
0.00703218	68.520000	0.591400
0.00703418	68.440000	0.580000
0.00704422	68.440000	0.580000
0.00706735	68.440000	0.583600
0.00706917	68.440000	0.583600
0.00707860	68.440000	0.583600
0.00709010	68.440000	0.581500
0.00710191	68.440000	0.581500
0.00714808	68.440000	0.581500
0.00715013	68.520000	0.585400
0.00715956	68.520000	0.585400
0.00717216	68.520000	0.585400
0.00718278	68.520000	0.585400
0.00719440	68.520000	0.591400
0.00724069	68.590000	0.595200
0.00724278	68.590000	0.595200
0.00725223	68.590000	0.595200
0.00726392	68.590000	0.595200
0.00727516	68.590000	0.595200
0.00728795	68.590000	0.595200
0.00729890	68.440000	0.585300
0.00732177	68.520000	0.586300
0.00732360	68.520000	0.586300
0.00733329	68.520000	0.586300
0.00735646	68.520000	0.586300
0.00735848	68.520000	0.586300
0.00736784	68.520000	0.587300
0.00737937	68.520000	0.587300
0.00739119	68.520000	0.587300
0.00740282	68.440000	0.593100
0.00741416	68.440000	0.593100
0.00742563	68.440000	0.593100
0.00743745	68.370000	0.593800
0.00744911	68.370000	0.593800
0.00746073	68.370000	0.593800
0.00747227	68.370000	0.591800
0.00748373	68.370000	0.591800
0.00749523	68.370000	0.591800
0.00750690	64.300000	0.530700
0.00751852	64.300000	0.530700
0.00753009	64.300000	0.530700
0.00754189	55.070000	0.443000
0.00755329	55.070000	0.443000
0.00756501	55.070000	0.443000
0.00757631	60.650000	0.513200
0.00765773	60.650000	0.513200
0.00767168	61.010000	0.526000
0.00770862	61.010000	0.526000
0.00771072	61.010000	0.526700
0.00771549	61.010000	0.526700
0.00772706	61.010000	0.526700
0.00773860	61.010000	0.526700
0.00775039	60.860000	0.527000
0.00776190	60.860000	0.527000
0.00777361	60.860000	0.527000
0.00778499	60.790000	0.523900
0.00779663	60.790000	0.523900
0.00780852	56.000000	0.462600
0.00782002	56.000000	0.462600
0.00783167	56.000000	0.462600
0.00784343	56.000000	0.462600
0.00785478	63.580000	0.529800
0.00786672	63.580000	0.529800
0.00787968	63.580000	0.529800
0.00788999	68.230000	0.586200
0.00790130	68.230000	0.586200
0.00791296	68.230000	0.586200
0.00792421	68.590000	0.596000
0.00793603	68.590000	0.596000
0.00794731	68.590000	0.596000
0.00795885	68.590000	0.593200
0.00797052	68.590000	0.593200
0.00798223	68.590000	0.593200
0.00799350	68.590000	0.593200
0.00800522	68.590000	0.593200
0.00801669	68.590000	0.593200
0.00802815	68.590000	0.591800
0.00804001	68.590000	0.591800
0.00805138	68.590000	0.591800
0.00806309	68.440000	0.589300
0.00807471	68.440000	0.589300
0.00808624	68.440000	0.589300
0.00809788	68.440000	0.586700
0.00810933	68.440000	0.586700
0.00812147	68.440000	0.586700
0.00813284	68.300000	0.583400
0.00814453	68.300000	0.583400
0.00815679	68.300000	0.583400
0.00816767	68.230000	0.581800
0.00817899	68.230000	0.581800
0.00819031	68.230000	0.581800
0.00820198	68.230000	0.580700
0.00821351	68.230000	0.580700
0.00822515	68.230000	0.580700
0.00823654	68.300000	0.583400
0.00824826	68.300000	0.583400
0.00826010	68.300000	0.583400
0.00827169	68.230000	0.584600
0.00828316	68.230000	0.584600
0.00829459	68.230000	0.591300
0.00830640	68.230000	0.591300
0.00831797	68.230000	0.591300
0.00832939	68.230000	0.591300
0.00834096	68.230000	0.588800
0.00835347	68.230000	0.588800
0.00836486	68.230000	0.588800
0.00837664	68.230000	0.589500
0.00838725	68.230000	0.589500
0.00839887	68.230000	0.589500
0.00841056	68.160000	0.588100
0.00842196	68.160000	0.588100
0.00843381	68.160000	0.588100
0.00844522	68.520000	0.585700
0.00845690	68.520000	0.585700
0.00846825	63.940000	0.529300
0.00847992	63.940000	0.529300
0.00849135	63.940000	0.529300
0.00850282	63.940000	0.529300
0.00851458	61.150000	0.532200
0.00852619	61.150000	0.532200
0.00853767	61.150000	0.532200
0.00854931	63.010000	0.543300
0.00856128	63.010000	0.543300
0.00857269	63.010000	0.543300
0.00858525	62.870000	0.536600
0.00859575	62.870000	0.536600
0.00860719	62.870000	0.536600
0.00861881	63.010000	0.549700
0.00863035	63.010000	0.549700
0.00864181	63.010000	0.549700
0.00865360	63.010000	0.546000
0.00866527	63.010000	0.546000
0.00867733	63.010000	0.546000
0.00868810	62.940000	0.545500
0.00869981	62.940000	0.545500
0.00871152	62.940000	0.545500
0.00872295	62.940000	0.545500
0.00873453	62.940000	0.545500
0.00874598	62.940000	0.545500
0.00875774	62.650000	0.518700
0.00876925	62.650000	0.518700
0.00878120	62.650000	0.518700
0.00879282	57.000000	0.462900
0.00880419	57.000000	0.462900
0.00881569	57.000000	0.462900
0.00882762	68.370000	0.577300
0.00883891	68.370000	0.577300
0.00885082	68.370000	0.577300
0.00886269	68.520000	0.579600
0.00887345	68.520000	0.579600
0.00888539	68.520000	0.579600
0.00889663	68.520000	0.579300
0.00890811	68.520000	0.579300
0.00891969	68.520000	0.579300
0.00893127	68.440000	0.587400
0.00894285	68.440000	0.587400
0.00895443	68.370000	0.583500
0.00896612	68.370000	0.583500
0.00897749	68.370000	0.583500
0.00898970	68.370000	0.583500
0.00900101	68.230000	0.581100
0.00901293	68.230000	0.581100
0.00905903	68.230000	0.581100
0.00906137	68.090000	0.584700
0.00907051	68.090000	0.588100
0.00908199	68.090000	0.588100
0.00910514	68.090000	0.588100
0.00910682	68.020000	0.586700
0.00911650	68.020000	0.586700
0.00912800	68.090000	0.585600
0.00913985	68.090000	0.585600
0.00915120	68.090000	0.585600
0.00916279	68.090000	0.585600
0.00917431	68.090000	0.585900
0.00918581	68.090000	0.585900
0.00919757	68.090000	0.585900
0.00920894	68.020000	0.583900
0.00922076	68.020000	0.583900
0.00923225	68.020000	0.583900
0.00924400	67.940000	0.581000
0.00925547	67.940000	0.581000
0.00926684	67.940000	0.581000
0.00931337	68.020000	0.580800
0.00931547	67.940000	0.584000
0.00932491	67.940000	0.584000
0.00933634	67.940000	0.584000
0.00934786	67.870000	0.583500
0.00935953	67.870000	0.583500
0.00937126	67.870000	0.583500
0.00938269	67.870000	0.582400
0.00939451	67.870000	0.582400
0.00940610	67.870000	0.582400
0.00941748	62.870000	0.520600
0.00942912	62.870000	0.520600
0.00944065	62.870000	0.520600
0.00945226	62.870000	0.520600
0.00946377	62.870000	0.520600
0.00947537	62.870000	0.520600
0.00948737	60.000000	0.515500
0.00949904	60.000000	0.515500
0.00951108	60.000000	0.515500
0.00952233	60.510000	0.522300
0.00953356	60.510000	0.522300
0.00954487	60.510000	0.522300
0.00955641	60.580000	0.518700
0.00956809	60.580000	0.518700
0.00957962	60.580000	0.518700
0.00959105	60.510000	0.517400
0.00960271	60.510000	0.517400
0.00961428	60.510000	0.517700
0.00962589	60.510000	0.517700
0.00963753	60.510000	0.517700
0.00964896	60.510000	0.517700
0.00966052	60.510000	0.515500
0.00967216	60.510000	0.515500
0.00968383	60.510000	0.515500
0.00969527	60.510000	0.513900
0.00970709	60.510000	0.513900
0.00971888	60.510000	0.513900
0.00973053	60.430000	0.520400
0.00974204	60.430000	0.520400
0.00975387	60.430000	0.520400
0.00976552	60.430000	0.520500
0.00977670	60.430000	0.520500
0.00978811	60.220000	0.527400
0.00983443	60.220000	0.527400
0.00983669	60.290000	0.523400
0.00984601	60.290000	0.523400
0.00985744	60.290000	0.523400
0.00986918	60.360000	0.521500
0.00988296	60.360000	0.521500
0.00989250	60.360000	0.521500
0.00993867	60.290000	0.525400
0.00994049	60.290000	0.527000
0.00995002	60.290000	0.527000
0.00996181	60.290000	0.527000
0.00997324	60.290000	0.528700
0.00999661	60.290000	0.528700
0.00999880	60.290000	0.528700
0.01000807	60.290000	0.518600
0.01005416	60.290000	0.518600
0.01005616	60.220000	0.517800
0.01006633	60.220000	0.517800
0.01011234	60.360000	0.519000
0.01011420	60.290000	0.517400
0.01012352	60.290000	0.517400
0.01013520	60.290000	0.517400
0.01014686	60.290000	0.516800
0.01015834	60.290000	0.516800
0.01016990	60.290000	0.516800
0.01018148	60.220000	0.514300
0.01019302	60.220000	0.514300
0.01020466	60.220000	0.514300
0.01021632	60.290000	0.513000
0.01022862	60.290000	0.513000
0.01023922	60.290000	0.513000
0.01025106	60.220000	0.521600
0.01026236	60.220000	0.521600
0.01027406	60.220000	0.529900
0.01028573	60.220000	0.529900
0.01029731	60.220000	0.529900
0.01030881	60.220000	0.529900
0.01032029	60.150000	0.515700
0.01033251	60.150000	0.515700
0.01035536	60.080000	0.506700
0.01035770	60.080000	0.506700
0.01036676	60.080000	0.506700
0.01037850	60.080000	0.506700
0.01039006	60.150000	0.507500
0.01043622	60.150000	0.507500
0.01043822	60.150000	0.515500
0.01044856	60.150000	0.515500
0.01045949	60.150000	0.517900
0.01050612	60.150000	0.517900
0.01050830	60.220000	0.524400
0.01052932	60.220000	0.524400
0.01053160	60.220000	0.521400
0.01057546	60.220000	0.521400
0.01057747	60.290000	0.520800
0.01058683	60.220000	0.518400
0.01059837	60.220000	0.518400
0.01062167	60.220000	0.518400
0.01062406	60.220000	0.517000
0.01063348	60.220000	0.517000
0.01064487	60.220000	0.517000
0.01065661	60.220000	0.517000
0.01066807	60.220000	0.516100
0.01067973	60.220000	0.516100
0.01069125	60.220000	0.516100
0.01070287	60.150000	0.519700
0.01074929	60.150000	0.519700
0.01075148	60.150000	0.518600
0.01076084	60.150000	0.516000
0.01078402	60.150000	0.516000
0.01079756	60.150000	0.516000
0.01079973	60.150000	0.519000
0.01080706	60.150000	0.519000
0.01081887	60.150000	0.519000
0.01083016	60.150000	0.519000
0.01084164	60.150000	0.513400
0.01085330	60.150000	0.513400
0.01086498	60.150000	0.513400
0.01087634	60.000000	0.511100
0.01088815	60.000000	0.511100
