#Measurement data
#8-5-22 11:41:32

#Time (days)	Power (W)	Current (A)
0.000005	1.640000	0.079900
0.000021	1.640000	0.079900
0.000031	1.640000	0.079900
0.000042	1.640000	0.080000
0.000056	1.640000	0.080000
0.000064	1.710000	0.080200
0.000077	1.710000	0.080200
0.000088	1.710000	0.080200
0.000100	1.640000	0.080000
0.000112	1.640000	0.080000
0.000124	1.640000	0.080000
0.000135	1.640000	0.080100
0.000146	1.640000	0.080100
0.000158	1.640000	0.080100
0.000170	1.640000	0.080000
0.000183	1.640000	0.080000
0.000194	1.640000	0.080000
0.000204	1.640000	0.080000
0.000216	1.640000	0.080000
0.000228	1.640000	0.080000
0.000241	1.640000	0.080100
0.000250	1.640000	0.080100
0.000262	1.640000	0.080100
0.000275	1.640000	0.080100
0.000286	1.640000	0.080100
0.000297	1.640000	0.080100
0.000309	1.640000	0.080100
0.000320	1.640000	0.080100
0.000332	1.640000	0.080100
0.000344	50.710000	0.316900
0.000355	50.710000	0.316900
0.000367	50.710000	0.316900
0.000378	53.280000	0.327500
0.000390	53.280000	0.327500
0.000401	53.280000	0.327500
0.000413	51.920000	0.322100
0.000425	51.920000	0.322100
0.000437	51.920000	0.322100
0.000448	41.910000	0.279900
0.000459	41.910000	0.279900
0.000471	41.910000	0.279900
0.000483	41.480000	0.276000
0.000496	41.480000	0.276000
0.000505	41.480000	0.276000
0.000517	48.270000	0.306300
0.000529	48.270000	0.306300
0.000541	48.270000	0.306300
0.000553	39.830000	0.268300
0.000563	39.830000	0.268300
0.000575	39.830000	0.268300
0.000587	39.830000	0.267800
0.000599	39.830000	0.267800
0.000611	39.830000	0.267800
0.000621	39.690000	0.266100
0.000634	39.690000	0.266100
0.000645	39.690000	0.266100
0.000659	38.690000	0.261800
0.000668	38.690000	0.261800
0.000678	38.690000	0.261800
0.000690	38.830000	0.261300
0.000703	38.830000	0.261300
0.000716	38.830000	0.261300
0.000727	40.840000	0.274000
0.000736	40.840000	0.274000
0.000752	40.840000	0.274000
0.000764	43.840000	0.285000
0.000774	43.840000	0.285000
0.000784	43.840000	0.285000
0.000797	67.010000	0.387200
0.000808	67.010000	0.387200
0.000819	67.010000	0.387200
0.000830	40.760000	0.271400
0.000844	40.760000	0.271400
0.000855	32.970000	0.271400
0.000866	32.970000	0.271400
0.000876	32.970000	0.236900
0.000888	32.970000	0.236900
0.000900	72.590000	0.444900
0.000912	72.590000	0.444900
0.000925	72.590000	0.444900
0.000934	96.840000	0.502500
0.000948	96.840000	0.502500
0.000958	96.840000	0.502500
0.000970	71.090000	0.409000
0.000981	71.090000	0.409000
0.000992	71.090000	0.409000
0.001004	127.600000	0.638600
0.001016	127.600000	0.638600
0.001028	127.600000	0.638600
0.001039	127.600000	0.638600
0.001050	127.600000	0.638600
0.001062	127.600000	0.638600
0.001075	95.840000	0.497100
0.001088	95.840000	0.497100
0.001097	95.840000	0.497100
0.001109	70.590000	0.394300
0.001120	70.590000	0.394300
0.001131	70.590000	0.394300
0.001143	86.680000	0.467800
0.001155	86.680000	0.467800
0.001167	86.680000	0.467800
0.001179	78.030000	0.426100
0.001192	78.030000	0.426100
0.001204	74.380000	0.410900
0.001213	74.380000	0.410900
0.001225	74.380000	0.410900
0.001235	74.380000	0.410900
0.001247	135.610000	0.668800
0.001259	135.610000	0.668800
0.001271	135.610000	0.668800
0.001283	112.650000	0.577500
0.001298	112.650000	0.577500
0.001310	112.650000	0.577500
0.001322	104.350000	0.534200
0.001336	104.350000	0.534200
0.001341	104.350000	0.534200
0.001359	101.420000	0.522700
0.001363	101.420000	0.522700
0.001378	101.420000	0.522700
0.001389	98.630000	0.514800
0.001398	98.630000	0.514800
0.001410	98.630000	0.514800
0.001422	76.030000	0.417900
0.001433	76.030000	0.417900
0.001445	76.030000	0.417900
0.001456	67.230000	0.398500
0.001468	67.230000	0.398500
0.001481	67.230000	0.398500
0.001494	69.300000	0.393200
0.001503	69.300000	0.393200
0.001513	65.580000	0.393200
0.001524	65.580000	0.375400
0.001538	65.580000	0.375400
0.001549	65.580000	0.375400
0.001560	64.580000	0.371900
0.001572	64.580000	0.371900
0.001584	64.580000	0.371900
0.001596	77.030000	0.424100
0.001606	77.030000	0.424100
0.001618	77.030000	0.424100
0.001631	76.100000	0.418700
0.001642	76.100000	0.418700
0.001653	76.100000	0.418700
0.001664	74.020000	0.409600
0.001676	74.020000	0.409600
0.001688	66.300000	0.379100
0.001700	66.300000	0.379100
0.001711	66.300000	0.379100
0.001722	66.300000	0.379100
0.001734	65.150000	0.371100
0.001746	65.150000	0.371100
0.001758	65.150000	0.371100
0.001769	65.150000	0.371100
0.001784	65.150000	0.371100
0.001795	65.150000	0.371100
0.001805	75.960000	0.417800
0.001815	75.960000	0.417800
0.001827	75.960000	0.417800
0.001839	100.130000	0.526500
0.001850	100.130000	0.526500
0.001861	78.320000	0.424600
0.001887	78.320000	0.424600
0.001892	78.320000	0.424600
0.001906	72.450000	0.419700
0.001916	72.450000	0.419700
0.001930	72.450000	0.419700
0.001943	65.370000	0.376200
0.001956	65.370000	0.376200
0.001976	64.730000	0.372200
0.001979	64.730000	0.372200
0.001993	64.730000	0.372200
0.002005	64.730000	0.372200
0.002020	69.520000	0.394700
0.002029	69.520000	0.394700
0.002040	71.090000	0.400000
0.002051	71.090000	0.400000
0.002063	71.090000	0.400000
0.002075	69.950000	0.397300
0.002088	69.950000	0.397300
0.002098	69.950000	0.397300
0.002114	69.950000	0.397300
0.002120	65.300000	0.372300
0.002133	65.300000	0.372300
0.002143	65.300000	0.372300
0.002155	65.730000	0.379700
0.002167	65.730000	0.379700
0.002179	68.730000	0.408000
0.002189	68.730000	0.408000
0.002203	68.730000	0.408000
0.002218	87.970000	0.488900
0.002229	87.970000	0.488900
0.002237	87.970000	0.488900
0.002249	65.440000	0.375700
0.002259	65.440000	0.375700
0.002270	65.440000	0.375700
0.002282	65.440000	0.375700
0.002295	61.290000	0.360000
0.002309	61.290000	0.360000
0.002319	61.290000	0.360000
0.002329	49.490000	0.310400
0.002341	49.490000	0.310400
0.002351	31.180000	0.229500
0.002364	31.180000	0.229500
0.002379	31.180000	0.229500
0.002391	30.750000	0.222400
0.002398	30.750000	0.222400
0.002409	30.750000	0.222400
0.002422	30.970000	0.223300
0.002434	30.970000	0.223300
0.002444	30.970000	0.223300
0.002457	30.970000	0.223300
0.002468	29.680000	0.217900
0.002481	29.680000	0.217900
0.002490	29.680000	0.217900
0.002504	29.680000	0.217900
0.002515	29.680000	0.217900
0.002526	50.490000	0.320100
0.002541	50.490000	0.320100
0.002548	50.490000	0.320100
0.002562	39.410000	0.267600
0.002572	39.410000	0.267600
0.002585	39.410000	0.267600
0.002596	39.410000	0.267600
0.002608	30.040000	0.218900
0.002621	30.040000	0.218900
0.002632	30.040000	0.218900
0.002641	31.750000	0.229200
0.002654	31.750000	0.229200
0.002667	30.460000	0.220100
0.002677	30.460000	0.220100
0.002688	30.460000	0.220100
0.002701	30.390000	0.219400
0.002718	30.390000	0.219400
0.002728	30.390000	0.219400
0.002738	30.110000	0.220000
0.002750	30.110000	0.220000
0.002762	30.110000	0.220000
0.002773	30.110000	0.220000
0.002785	30.040000	0.219800
0.002793	30.040000	0.219800
0.002806	30.040000	0.219800
0.002815	30.180000	0.219500
0.002827	30.180000	0.219500
0.002839	30.110000	0.220400
0.002852	30.110000	0.220400
0.002861	30.110000	0.220400
0.002875	31.110000	0.225900
0.002885	31.110000	0.225900
0.002897	31.110000	0.225900
0.002908	33.830000	0.238100
0.002921	33.830000	0.238100
0.002933	33.830000	0.238100
0.002943	33.830000	0.238100
0.002955	40.690000	0.288000
0.002967	40.690000	0.288000
0.002979	40.690000	0.288000
0.002989	52.710000	0.334800
0.003005	52.710000	0.334800
0.003013	30.250000	0.219600
0.003023	30.250000	0.219600
0.003037	30.250000	0.219600
0.003048	30.110000	0.221100
0.003059	30.110000	0.221100
0.003072	30.110000	0.221100
0.003083	37.550000	0.266900
0.003095	37.550000	0.266900
0.003106	37.550000	0.266900
0.003117	37.550000	0.266900
0.003129	30.610000	0.222200
0.003141	30.610000	0.222200
0.003154	30.610000	0.222200
0.003164	29.610000	0.218400
0.003174	29.610000	0.218400
0.003187	29.460000	0.217100
0.003198	29.460000	0.217100
0.003210	29.460000	0.217100
0.003222	29.460000	0.217100
0.003234	29.460000	0.217100
0.003245	29.460000	0.217100
0.003256	29.750000	0.218000
0.003269	29.750000	0.218000
0.003280	29.750000	0.218000
0.003292	29.750000	0.218000
0.003302	29.680000	0.217100
0.003314	29.680000	0.217100
0.003326	28.610000	0.212100
0.003340	28.610000	0.212100
0.003350	28.610000	0.212100
0.003360	29.110000	0.213900
0.003372	29.110000	0.213900
0.003383	29.110000	0.213900
0.003396	30.110000	0.218800
0.003407	30.110000	0.218800
0.003419	30.110000	0.218800
0.003430	29.610000	0.217000
0.003442	29.610000	0.217000
0.003454	29.610000	0.217000
0.003465	29.610000	0.217000
0.003477	29.820000	0.218900
0.003490	29.820000	0.218900
0.003501	29.610000	0.217900
0.003511	29.610000	0.217900
0.003523	29.610000	0.217900
0.003533	28.680000	0.211700
0.003547	28.680000	0.211700
0.003558	28.680000	0.211700
0.003569	29.540000	0.217500
0.003581	29.540000	0.217500
0.003594	29.540000	0.217500
0.003605	29.540000	0.217500
0.003615	29.610000	0.217800
0.003627	29.610000	0.217800
0.003639	29.610000	0.217800
0.003652	29.820000	0.219400
0.003663	29.820000	0.219400
0.003673	32.680000	0.240500
0.003685	32.680000	0.240500
0.003697	32.680000	0.240500
0.003712	29.820000	0.218400
0.003720	29.820000	0.218400
0.003731	29.820000	0.218400
0.003742	29.890000	0.218200
0.003755	29.890000	0.218200
0.003767	29.890000	0.218200
0.003778	29.890000	0.218200
0.003790	30.890000	0.222900
0.003801	30.890000	0.222900
0.003813	30.890000	0.222900
0.003825	29.680000	0.217700
0.003836	29.680000	0.217700
0.003848	29.890000	0.218200
0.003859	29.890000	0.218200
0.003871	29.890000	0.218200
0.003882	29.390000	0.215300
0.003894	29.390000	0.215300
0.003906	29.390000	0.215300
0.003918	30.750000	0.222800
0.003928	30.750000	0.222800
0.003940	30.750000	0.222800
0.003954	30.750000	0.222800
0.003964	30.750000	0.222800
0.003976	30.750000	0.222800
0.003986	29.460000	0.218400
0.003998	29.460000	0.218400
0.004011	29.460000	0.218400
0.004022	29.610000	0.217700
0.004032	29.610000	0.217700
0.004044	29.610000	0.217700
0.004056	30.110000	0.219900
0.004068	30.110000	0.219900
0.004085	30.110000	0.219900
0.004095	29.750000	0.218200
0.004111	29.750000	0.218200
0.004114	29.750000	0.218200
0.004124	29.750000	0.218200
0.004139	29.680000	0.218500
0.004151	29.680000	0.218500
0.004163	31.180000	0.225300
0.004173	31.180000	0.225300
0.004185	31.180000	0.225300
0.004195	29.680000	0.217400
0.004207	29.680000	0.217400
0.004219	29.680000	0.217400
0.004229	29.390000	0.216200
0.004242	29.390000	0.216200
0.004253	29.390000	0.216200
0.004265	29.390000	0.215900
0.004277	29.390000	0.215900
0.004288	29.390000	0.215900
0.004300	29.390000	0.215900
0.004311	29.460000	0.216300
0.004323	29.460000	0.216300
0.004335	29.890000	0.218500
0.004347	29.890000	0.218500
0.004360	29.890000	0.218500
0.004369	28.750000	0.215400
0.004381	28.750000	0.215400
0.004393	28.750000	0.215400
0.004403	36.400000	0.253200
0.004415	36.400000	0.253200
0.004431	36.400000	0.253200
0.004439	36.400000	0.253200
0.004452	29.390000	0.216100
0.004461	29.390000	0.216100
0.004473	33.110000	0.236700
0.004485	33.110000	0.236700
0.004497	33.110000	0.236700
0.004508	30.750000	0.222700
0.004520	30.750000	0.222700
0.004531	30.750000	0.222700
0.004543	30.110000	0.219600
0.004556	30.110000	0.219600
0.004565	30.110000	0.219600
0.004576	29.390000	0.216400
0.004589	29.390000	0.216400
0.004601	29.390000	0.216400
0.004612	29.390000	0.216400
0.004626	31.180000	0.225000
0.004636	31.180000	0.225000
0.004646	29.390000	0.215900
0.004658	29.390000	0.215900
0.004670	29.390000	0.215900
0.004682	29.390000	0.215900
0.004696	29.390000	0.215900
0.004707	29.390000	0.215900
0.004716	29.680000	0.217300
0.004728	29.680000	0.217300
0.004740	29.680000	0.217300
0.004755	30.320000	0.221400
0.004764	30.320000	0.221400
0.004774	30.320000	0.221400
0.004786	30.320000	0.221400
0.004811	29.610000	0.217900
0.004815	29.820000	0.219300
0.004830	29.820000	0.219300
0.004842	29.820000	0.219300
0.004851	29.820000	0.217500
0.004863	29.820000	0.217500
0.004876	29.820000	0.217500
0.004886	29.820000	0.217500
0.004900	29.460000	0.216500
0.004909	29.460000	0.216500
0.004920	29.460000	0.216500
0.004936	31.750000	0.228000
0.004947	31.750000	0.228000
0.004956	29.390000	0.217100
0.004968	29.390000	0.217100
0.004982	29.390000	0.217100
0.004992	29.820000	0.219400
0.005003	29.820000	0.219400
0.005014	29.820000	0.219400
0.005026	29.890000	0.218400
0.005037	29.890000	0.218400
0.005048	29.890000	0.218400
0.005064	29.890000	0.218400
0.005075	29.820000	0.219200
0.005085	29.820000	0.219200
0.005094	29.820000	0.219200
0.005110	29.460000	0.215900
0.005118	29.460000	0.215900
0.005131	29.390000	0.216400
0.005140	29.390000	0.216400
0.005157	29.390000	0.216400
0.005167	29.250000	0.215900
0.005177	29.250000	0.215900
0.005188	29.250000	0.215900
0.005200	29.750000	0.218500
0.005213	29.750000	0.218500
0.005222	29.750000	0.218500
0.005234	29.750000	0.218500
0.005246	29.610000	0.218400
0.005259	29.610000	0.218400
0.005268	29.610000	0.218400
0.005280	29.680000	0.216800
0.005293	29.680000	0.216800
0.005303	30.110000	0.219800
0.005314	30.110000	0.219800
0.005327	30.110000	0.219800
0.005340	29.320000	0.216600
0.005361	29.320000	0.216600
0.005363	29.320000	0.216600
0.005376	29.750000	0.218100
0.005388	29.750000	0.218100
0.005401	29.750000	0.218100
0.005412	29.750000	0.218100
0.005426	29.750000	0.218100
0.005439	29.750000	0.218100
0.005449	29.960000	0.221000
0.005457	29.960000	0.221000
0.005469	29.960000	0.221000
0.005481	29.960000	0.218900
0.005495	29.960000	0.218900
0.005509	29.960000	0.218900
0.005526	29.610000	0.215800
0.005530	29.610000	0.215800
0.005545	29.610000	0.215800
0.005556	29.610000	0.217200
0.005568	29.610000	0.217200
0.007622	30.250000	0.219200
0.007636	31.250000	0.233900
0.007648	31.250000	0.233900
0.007660	31.250000	0.233900
0.007670	30.820000	0.226500
0.007682	30.820000	0.226500
0.007694	30.820000	0.226500
0.007710	29.890000	0.219200
0.007717	29.890000	0.219200
0.007729	47.630000	0.305100
0.007740	47.630000	0.305100
0.007755	47.630000	0.305100
0.007764	47.630000	0.305100
0.007775	29.180000	0.215500
0.007790	29.180000	0.215500
0.007798	29.180000	0.215500
0.007809	49.200000	0.319600
0.007821	49.200000	0.319600
0.007833	49.200000	0.319600
0.007845	49.990000	0.310500
0.007857	49.990000	0.310500
0.007868	49.990000	0.310500
0.007879	77.740000	0.426300
0.007891	77.740000	0.426300
0.007903	77.740000	0.426300
0.007915	44.340000	0.294600
0.007925	44.340000	0.294600
0.007937	44.340000	0.294600
0.007949	30.320000	0.221400
0.007961	30.320000	0.221400
0.007973	30.320000	0.221400
0.007983	29.610000	0.217100
0.007995	29.610000	0.217100
0.008007	29.610000	0.217100
0.008063	29.540000	0.216100
0.008065	29.540000	0.216100
0.008079	41.410000	0.280800
0.008091	41.410000	0.280800
0.008103	41.410000	0.280800
0.008114	41.410000	0.280800
0.008139	30.750000	0.223100
0.008141	30.750000	0.223100
0.008155	31.040000	0.224200
0.008167	31.040000	0.224200
0.008179	31.040000	0.224200
0.008191	29.320000	0.216200
0.008201	29.320000	0.216200
0.008216	29.320000	0.216200
0.008225	30.890000	0.225400
0.008236	30.890000	0.225400
0.008251	30.890000	0.225400
0.008263	30.390000	0.222200
0.008274	30.390000	0.222200
0.008285	30.390000	0.222200
0.008302	29.680000	0.218300
0.008306	29.680000	0.218300
0.008322	29.680000	0.218300
0.008330	30.250000	0.220800
0.008342	30.250000	0.220800
0.008353	30.250000	0.220800
0.008364	29.390000	0.216600
0.008376	29.390000	0.216600
0.008388	29.390000	0.216600
0.008398	29.250000	0.216400
0.008410	29.250000	0.216400
0.008422	29.250000	0.216400
0.008434	29.750000	0.217400
0.008444	29.750000	0.217400
0.008456	29.750000	0.217400
0.008480	29.250000	0.215600
0.008482	29.250000	0.215600
0.008497	29.250000	0.215600
0.008508	29.390000	0.216600
0.008523	29.390000	0.216600
0.008531	29.390000	0.216600
0.008543	29.390000	0.216200
0.008555	29.390000	0.216200
0.008566	32.040000	0.231500
0.008578	32.040000	0.231500
0.008595	32.040000	0.231500
0.008601	61.790000	0.365500
0.008613	61.790000	0.365500
0.008623	61.790000	0.365500
0.008635	61.790000	0.365500
0.008646	75.240000	0.418800
0.008659	75.240000	0.418800
0.008671	75.240000	0.418800
0.008694	50.850000	0.319400
0.008719	50.850000	0.319400
0.008734	50.920000	0.322300
0.008745	29.680000	0.218100
0.008757	29.680000	0.218100
0.008768	29.680000	0.218100
0.008780	36.190000	0.256100
0.008792	36.190000	0.256100
0.008803	36.190000	0.256100
0.008814	32.110000	0.233600
0.008826	32.110000	0.233600
0.008838	32.110000	0.233600
0.008850	29.540000	0.217200
0.008862	29.540000	0.217200
0.008872	29.540000	0.217200
0.008884	29.610000	0.217600
0.008896	29.610000	0.217600
0.008908	29.610000	0.217600
0.008918	29.390000	0.216500
0.008930	29.390000	0.216500
0.008942	29.390000	0.216500
0.008958	29.820000	0.217400
0.008966	29.820000	0.217400
0.008977	29.820000	0.217400
0.008991	29.180000	0.215000
0.009000	29.180000	0.215000
0.009012	29.180000	0.215000
0.009023	29.180000	0.215000
0.009035	29.680000	0.217200
0.009046	29.680000	0.217200
0.009058	29.540000	0.216700
0.009070	29.540000	0.216700
0.009081	29.540000	0.216700
0.009095	70.880000	0.397700
0.009105	70.880000	0.397700
0.009116	70.880000	0.397700
0.009129	58.290000	0.347700
0.009139	58.290000	0.347700
0.009151	58.290000	0.347700
0.009163	36.120000	0.251400
0.009177	36.120000	0.251400
0.009185	36.120000	0.251400
0.009197	45.060000	0.300000
0.009211	45.060000	0.300000
0.009221	45.060000	0.300000
0.009231	31.110000	0.224000
0.009242	31.110000	0.224000
0.009255	31.110000	0.224000
0.009267	66.010000	0.386200
0.009280	66.010000	0.386200
0.009289	66.010000	0.386200
0.009301	58.220000	0.364200
0.009313	58.220000	0.364200
0.009325	58.220000	0.364200
0.009335	37.980000	0.260400
0.009348	37.980000	0.260400
0.009359	37.980000	0.260400
0.009371	32.250000	0.230300
0.009382	32.250000	0.230300
0.009393	32.250000	0.230300
0.009406	33.180000	0.235600
0.009420	33.180000	0.235600
0.009429	33.180000	0.235600
0.009440	87.610000	0.491700
0.009452	87.610000	0.491700
0.009464	87.610000	0.491700
0.009486	72.880000	0.408600
0.009489	72.880000	0.408600
0.009502	72.880000	0.408600
0.009515	68.230000	0.388000
0.009526	68.230000	0.388000
0.009538	74.740000	0.416400
0.009549	74.740000	0.416400
0.009561	74.740000	0.416400
0.009573	97.130000	0.510900
0.009586	97.130000	0.510900
0.009636	84.820000	0.453400
0.009642	84.820000	0.453400
0.009659	83.970000	0.453900
0.009680	83.970000	0.453900
0.009684	82.180000	0.456400
0.009702	82.180000	0.456400
0.009710	78.530000	0.429600
0.009736	78.530000	0.429600
0.009739	78.530000	0.429600
0.009817	77.100000	0.418200
0.009829	75.600000	0.415900
0.009844	75.600000	0.415900
0.009987	69.660000	0.415900
0.010007	69.520000	0.388500
0.010021	76.810000	0.437500
0.010033	76.810000	0.437500
0.010045	76.810000	0.437500
0.010056	76.810000	0.437500
0.010067	29.540000	0.217100
0.010079	29.540000	0.217100
0.010103	29.540000	0.217100
0.010105	29.110000	0.216400
0.010120	29.110000	0.216400
0.010131	29.110000	0.216400
0.010143	29.250000	0.216200
0.010154	29.250000	0.216200
0.010166	29.250000	0.216200
0.010178	31.680000	0.232200
0.010190	31.680000	0.232200
0.010200	45.060000	0.292700
0.010212	45.060000	0.292700
0.010224	45.060000	0.292700
0.010236	29.610000	0.217600
0.010248	29.610000	0.217600
0.010258	29.610000	0.217600
0.010270	32.680000	0.236300
0.010283	32.680000	0.236300
0.010295	32.680000	0.236300
0.010304	32.680000	0.236300
0.010316	29.820000	0.217600
0.010328	29.820000	0.217600
0.010340	29.320000	0.217600
0.010354	29.320000	0.216600
0.010363	29.320000	0.216600
0.010374	29.250000	0.215800
0.010385	29.250000	0.215800
0.010398	29.250000	0.215800
0.010409	29.390000	0.216600
0.010421	29.390000	0.216600
0.010435	29.390000	0.216600
0.010456	29.390000	0.216600
0.010459	29.390000	0.216600
0.010473	29.390000	0.216600
0.010486	29.250000	0.215500
0.010497	29.250000	0.215500
0.010512	29.320000	0.216700
0.010519	29.320000	0.216700
0.010543	29.320000	0.216700
0.010545	29.110000	0.215500
0.010559	29.110000	0.215500
0.010571	29.110000	0.215500
0.010583	29.320000	0.217000
0.010594	29.320000	0.217000
0.010606	29.320000	0.217000
0.010617	29.320000	0.217000
0.010629	30.040000	0.218100
0.010640	30.040000	0.218100
0.010652	30.040000	0.218100
0.010664	29.180000	0.215500
0.010677	29.180000	0.215500
0.010687	29.820000	0.218700
