#Measurement data
#2022-05-22 10:04:26

#Time (days)	Power (W)	Current (A)
0.00000163	0.070000	0.036000
0.00001477	0.070000	0.036000
0.00002617	0.070000	0.036000
0.00003769	0.070000	0.036000
0.00004954	0.070000	0.036000
0.00006152	0.070000	0.035900
0.00007286	0.070000	0.035900
0.00008453	0.070000	0.035800
0.00009605	0.070000	0.035800
0.00010758	0.070000	0.035800
0.00011920	0.070000	0.036000
0.00013087	0.070000	0.036000
0.00014231	0.070000	0.036000
0.00015395	0.070000	0.036000
0.00016545	0.070000	0.036000
0.00017709	0.070000	0.036000
0.00018851	0.070000	0.036000
0.00020034	0.070000	0.036000
0.00021233	0.070000	0.036000
0.00022409	0.070000	0.036000
0.00023561	0.070000	0.036000
0.00024742	0.070000	0.036000
0.00025903	0.070000	0.035900
0.00027084	0.070000	0.035900
0.00028253	0.070000	0.035900
0.00029388	0.070000	0.036100
0.00030544	0.070000	0.036100
0.00031699	0.070000	0.036100
0.00032884	0.070000	0.036000
0.00034023	0.070000	0.036000
0.00035194	0.070000	0.036000
0.00036406	0.070000	0.036000
0.00037561	0.070000	0.036000
0.00038711	0.070000	0.036000
0.00039887	0.070000	0.036000
0.00041069	0.070000	0.036000
0.00042270	0.070000	0.036000
0.00043378	0.070000	0.036100
0.00044542	0.070000	0.036100
0.00045708	0.070000	0.036100
0.00046848	0.070000	0.035800
0.00048034	0.070000	0.035800
0.00049200	0.070000	0.035800
0.00050384	0.070000	0.036000
0.00051543	0.070000	0.036000
0.00052700	0.070000	0.036000
0.00053852	0.140000	0.036000
0.00055053	0.140000	0.036000
0.00056189	0.140000	0.036000
0.00057344	0.070000	0.036100
0.00058498	0.070000	0.036100
0.00059664	0.070000	0.036100
0.00060819	0.070000	0.036200
0.00061973	0.070000	0.036200
0.00063150	0.070000	0.036200
0.00064295	0.070000	0.036000
0.00065443	0.070000	0.036000
0.00066604	0.070000	0.036000
0.00067911	0.070000	0.036000
0.00068907	0.070000	0.036000
0.00070091	0.070000	0.036000
0.00071253	0.070000	0.036100
0.00072403	0.070000	0.036100
0.00073552	0.070000	0.036100
0.00074704	0.070000	0.036000
0.00075889	0.070000	0.036000
0.00077015	0.070000	0.036000
0.00078179	0.070000	0.036100
0.00079336	0.070000	0.036100
0.00080507	0.070000	0.036100
0.00081671	0.070000	0.036100
0.00082814	0.070000	0.036100
0.00083969	0.070000	0.036100
0.00085147	0.070000	0.036200
0.00086293	0.070000	0.036200
0.00087469	0.070000	0.036200
0.00088623	0.070000	0.036200
0.00089764	0.070000	0.036100
0.00090922	0.070000	0.036100
0.00092093	0.070000	0.036100
0.00093277	0.070000	0.036100
0.00094416	0.070000	0.036100
0.00095601	0.070000	0.036000
0.00096784	0.070000	0.036000
0.00097931	0.070000	0.036000
0.00099073	0.070000	0.036100
0.00100218	0.070000	0.036100
0.00101404	0.070000	0.036100
0.00102564	0.070000	0.036200
0.00103705	0.070000	0.036200
0.00104855	0.070000	0.036200
0.00106019	0.070000	0.036200
0.00107193	0.070000	0.036300
0.00108332	0.070000	0.036300
0.00109476	0.140000	0.036200
0.00110654	0.140000	0.036200
0.00111821	0.140000	0.036200
0.00112990	0.070000	0.036000
0.00114108	0.070000	0.036000
0.00115264	0.070000	0.036000
0.00116433	0.070000	0.036100
0.00117583	0.070000	0.036100
0.00118749	0.070000	0.036100
0.00119906	0.070000	0.036200
0.00121064	0.070000	0.036200
0.00122225	0.070000	0.036200
0.00123370	0.070000	0.036100
0.00124509	0.070000	0.036100
0.00125706	0.070000	0.036100
0.00126837	0.070000	0.036100
0.00128010	0.070000	0.036100
0.00129153	0.070000	0.036100
0.00130353	0.070000	0.036000
0.00131492	0.070000	0.036000
0.00132650	0.070000	0.036000
0.00133785	0.070000	0.036100
0.00134951	0.070000	0.036100
0.00136098	0.070000	0.036100
0.00137286	0.070000	0.036100
0.00138464	0.070000	0.036100
0.00139611	0.070000	0.036100
0.00140774	0.070000	0.036100
0.00141968	0.070000	0.036100
0.00143125	0.070000	0.036100
0.00144291	0.070000	0.036100
0.00145456	0.070000	0.036100
0.00146586	0.070000	0.036100
0.00147774	0.070000	0.036200
0.00148931	0.070000	0.036200
0.00150111	0.070000	0.036200
0.00151271	0.070000	0.036200
0.00152442	0.070000	0.036200
0.00153601	0.070000	0.036200
0.00154859	0.070000	0.036300
0.00155981	0.070000	0.036300
0.00157103	0.070000	0.036200
0.00158272	0.070000	0.036200
0.00159461	0.070000	0.036200
0.00160603	0.070000	0.036200
0.00161796	0.070000	0.036300
0.00162933	0.070000	0.036300
0.00164103	0.070000	0.036300
0.00165265	0.070000	0.036300
0.00166420	0.070000	0.036300
0.00167567	0.070000	0.036300
0.00168714	0.070000	0.036300
0.00169907	0.070000	0.036300
0.00171063	0.070000	0.036300
0.00172241	0.070000	0.036200
0.00173369	0.070000	0.036200
0.00174530	0.070000	0.036200
0.00175690	0.070000	0.036200
0.00176866	0.070000	0.036200
0.00178044	0.070000	0.036200
0.00179171	0.070000	0.036200
0.00180341	0.070000	0.036200
0.00181498	0.070000	0.036200
0.00182642	0.070000	0.036200
0.00183785	0.070000	0.036200
0.00184961	0.070000	0.036200
0.00186084	0.070000	0.036200
0.00187313	0.070000	0.036200
0.00188471	0.070000	0.036300
0.00189611	0.070000	0.036300
0.00190782	0.070000	0.036300
0.00191929	0.070000	0.036300
0.00193119	0.070000	0.036400
0.00194295	0.070000	0.036400
0.00195470	0.070000	0.036400
0.00196931	0.070000	0.036200
0.00197765	0.070000	0.036200
0.00198918	0.070000	0.036200
0.00200095	0.070000	0.036300
0.00201255	0.070000	0.036300
0.00202392	0.070000	0.036300
0.00203531	0.070000	0.036200
0.00204708	0.070000	0.036200
0.00205860	0.070000	0.036200
0.00206991	0.070000	0.036200
0.00208170	0.070000	0.036200
0.00209332	0.070000	0.036200
0.00210481	0.070000	0.036100
0.00211633	0.070000	0.036100
0.00212775	0.070000	0.036100
0.00213939	0.070000	0.036100
0.00215117	0.070000	0.036100
0.00216287	0.070000	0.036100
0.00217481	0.070000	0.036100
0.00218627	0.070000	0.036100
0.00219770	0.070000	0.036100
0.00220981	0.070000	0.036000
0.00222127	0.070000	0.036000
0.00223294	0.070000	0.036100
0.00224443	0.070000	0.036100
0.00225596	0.070000	0.036100
0.00226764	0.070000	0.036100
0.00227918	0.850000	0.054300
0.00229093	0.850000	0.054300
0.00230257	0.850000	0.054300
0.00231410	1.710000	0.039300
0.00232550	1.710000	0.039300
0.00233703	1.710000	0.039300
0.00234912	1.570000	0.038900
0.00236037	1.570000	0.038900
0.00237172	1.570000	0.038900
0.00238351	1.570000	0.038900
0.00239498	1.570000	0.038900
0.00240656	8.940000	0.056000
0.00241802	8.940000	0.056000
0.00242965	8.940000	0.056000
0.00244120	8.940000	0.056000
0.00245285	61.290000	1.287200
0.00246444	61.290000	1.287200
0.00247600	61.290000	1.287200
0.00248747	5.790000	0.047900
0.00249913	5.790000	0.047900
0.00251068	5.790000	0.047900
0.00252220	63.150000	1.381300
0.00253384	63.150000	1.381300
0.00254529	33.540000	0.771800
0.00255735	33.540000	0.771800
0.00256852	33.540000	0.771800
0.00258009	29.680000	0.880000
0.00259160	29.680000	0.880000
0.00260334	29.680000	0.880000
0.00261528	29.680000	0.880000
0.00262650	41.910000	0.861200
0.00263811	41.910000	0.861200
0.00264957	41.910000	0.861200
0.00266106	5.000000	0.046200
0.00267301	5.000000	0.046200
0.00268447	5.000000	0.046200
0.00269579	14.870000	0.094600
0.00270736	14.870000	0.094600
0.00271899	14.800000	0.094600
0.00273056	14.800000	0.094600
0.00274227	14.800000	0.094600
0.00275359	14.800000	0.094600
0.00276543	14.090000	0.093500
0.00277697	14.090000	0.093500
0.00278843	14.090000	0.093500
0.00280002	5.500000	0.088800
0.00281154	5.500000	0.088800
0.00282314	5.500000	0.088800
0.00283497	45.630000	0.950600
0.00284742	45.630000	0.950600
0.00285825	45.630000	0.950600
0.00287045	54.350000	1.035800
0.00288104	54.350000	1.035800
0.00289272	52.570000	0.995600
0.00290409	52.570000	0.995600
0.00291582	52.570000	0.995600
0.00292713	52.570000	0.995600
0.00293900	56.570000	1.077200
0.00295094	56.570000	1.077200
0.00296208	56.570000	1.077200
0.00297369	53.850000	1.117200
0.00298522	53.850000	1.117200
0.00299655	53.850000	1.117200
0.00300833	50.130000	1.055300
0.00301997	50.130000	1.055300
0.00303179	60.220000	1.055300
0.00304316	60.220000	1.137700
0.00305468	60.220000	1.137700
0.00306618	63.010000	1.191500
0.00307774	63.010000	1.191500
0.00308959	63.010000	1.191500
0.00310111	63.010000	1.191500
0.00311256	63.010000	1.191500
0.00312407	63.010000	1.191500
0.00313567	63.010000	1.191500
0.00314723	65.080000	1.222300
0.00315925	65.080000	1.222300
0.00317043	65.080000	1.222300
0.00318190	67.090000	1.259900
0.00319377	67.090000	1.259900
0.00320568	69.090000	1.285900
0.00321698	69.090000	1.285900
0.00322884	69.090000	1.285900
0.00324021	73.810000	1.359400
0.00325179	73.810000	1.359400
0.00326333	73.810000	1.359400
0.00327503	73.810000	1.359400
0.00328694	76.460000	1.395900
0.00329836	76.460000	1.395900
0.00330993	76.460000	1.395900
0.00332132	78.100000	1.437000
0.00333271	78.100000	1.437000
0.00334462	78.100000	1.437000
0.00335602	88.190000	1.588400
0.00336779	88.190000	1.588400
0.00337933	88.830000	1.601900
0.00339089	88.830000	1.601900
0.00340233	88.830000	1.601900
0.00341403	95.770000	1.706700
0.00342561	95.770000	1.706700
0.00343698	95.770000	1.706700
0.00344889	95.770000	1.706700
0.00346039	103.490000	1.813100
0.00347207	103.490000	1.813100
0.00348369	103.490000	1.813100
0.00349663	107.780000	1.903600
0.00350690	107.780000	1.903600
0.00351843	107.780000	1.903600
0.00353024	114.080000	2.008700
0.00354190	114.080000	2.008700
0.00355350	117.870000	2.054300
0.00356505	117.870000	2.054300
0.00357663	117.870000	2.054300
0.00358824	1602.740000	8.273700
0.00359973	1602.740000	8.273700
0.00361138	1602.740000	8.273700
0.00362281	1602.740000	8.273700
0.00363448	2218.290000	9.839100
0.00364595	2218.290000	9.839100
0.00365760	2218.290000	9.839100
0.00366912	396.100000	4.103100
0.00368061	396.100000	4.103100
0.00369229	142.970000	2.439100
0.00370390	142.970000	2.439100
0.00371551	142.970000	2.439100
0.00372714	160.780000	2.698300
0.00373861	160.780000	2.698300
0.00375001	160.780000	2.698300
0.00376176	160.780000	2.698300
0.00377338	148.630000	2.535000
0.00378524	148.630000	2.535000
0.00379647	148.630000	2.535000
0.00380825	156.560000	2.649400
0.00381997	156.560000	2.649400
0.00383185	156.560000	2.649400
0.00384274	156.560000	2.649400
0.00385463	156.560000	2.649400
0.00386616	168.080000	2.797400
0.00387743	168.080000	2.797400
0.00388911	168.080000	2.797400
0.00390075	4.360000	0.044300
0.00391226	4.360000	0.044300
0.00392404	4.360000	0.044300
0.00393542	4.360000	0.044300
0.00394716	186.820000	2.885900
0.00395863	186.820000	2.885900
0.00397021	186.820000	2.885900
0.00398176	167.080000	2.580300
0.00399351	167.080000	2.580300
0.00400519	167.080000	2.580300
0.00401664	177.880000	2.745800
0.00402813	177.880000	2.745800
0.00403964	172.940000	2.630100
0.00405142	172.940000	2.630100
0.00406288	172.940000	2.630100
0.00407442	4.430000	0.044800
0.00408626	4.430000	0.044800
0.00409759	4.430000	0.044800
0.00410916	4.430000	0.044800
0.00412060	69.160000	1.770400
0.00413233	69.160000	1.770400
0.00414400	69.160000	1.770400
0.00415575	152.270000	2.532000
0.00416843	152.270000	2.532000
0.00417861	187.390000	2.979900
0.00419025	187.390000	2.979900
0.00420324	187.390000	2.979900
0.00421374	177.240000	2.840200
0.00422480	177.240000	2.840200
0.00423704	177.240000	2.840200
0.00424819	177.240000	2.840200
0.00425986	153.060000	2.660700
0.00427106	153.060000	2.660700
0.00428286	153.060000	2.660700
0.00429443	4.360000	0.044200
0.00430606	4.360000	0.044200
0.00431777	4.360000	0.044200
0.00432936	181.310000	2.849500
0.00434074	181.310000	2.849500
0.00435236	176.310000	2.710200
0.00436391	176.310000	2.710200
0.00437579	176.310000	2.710200
0.00438721	172.660000	2.684100
0.00439858	172.660000	2.684100
0.00441037	172.660000	2.684100
0.00442204	172.660000	2.684100
0.00443376	177.660000	2.772000
0.00444491	177.660000	2.772000
0.00445667	177.660000	2.772000
0.00446819	4.720000	0.046100
0.00447968	4.720000	0.046100
0.00449132	4.720000	0.046100
0.00450291	135.460000	2.475500
0.00451438	135.460000	2.475500
0.00452598	179.670000	2.923100
0.00453766	179.670000	2.923100
0.00454914	179.670000	2.923100
0.00456069	179.670000	2.923100
0.00457213	179.670000	2.923100
0.00458376	179.670000	2.923100
0.00459535	179.670000	2.923100
0.00460707	175.660000	2.836300
0.00461846	175.660000	2.836300
0.00463020	175.660000	2.836300
0.00464181	63.720000	1.651800
0.00465406	63.720000	1.651800
0.00466481	4.140000	0.043400
0.00467647	4.140000	0.043400
0.00468860	4.140000	0.043400
0.00470005	180.170000	2.790700
0.00471163	180.170000	2.790700
0.00472312	180.170000	2.790700
0.00473495	185.100000	2.855600
0.00474623	185.100000	2.855600
0.00475786	185.100000	2.855600
0.00476934	185.100000	2.855600
0.00478097	182.600000	2.827700
0.00479303	182.600000	2.827700
0.00480407	182.600000	2.827700
0.00481579	173.950000	2.751600
0.00482720	173.950000	2.751600
0.00483881	4.290000	0.044200
0.00485057	4.290000	0.044200
0.00486219	4.290000	0.044200
0.00487375	41.770000	1.284800
0.00488535	41.770000	1.284800
0.00489707	41.770000	1.284800
0.00490906	175.160000	2.833900
0.00492013	175.160000	2.833900
0.00493157	175.160000	2.833900
0.00494311	175.160000	2.833900
0.00495499	151.920000	2.662900
0.00496635	151.920000	2.662900
0.00497787	151.920000	2.662900
0.00498986	2100.990000	9.080000
0.00500122	2100.990000	9.080000
0.00501281	2233.810000	9.962500
0.00502407	2233.810000	9.962500
0.00503573	2233.810000	9.962500
0.00504734	2244.750000	10.026700
0.00505876	2244.750000	10.026700
0.00507063	2244.750000	10.026700
0.00508194	2244.750000	10.026700
0.00509383	2256.130000	10.112600
0.00510557	2256.130000	10.112600
0.00511763	2256.130000	10.112600
0.00512860	2248.970000	10.064600
0.00514021	2248.970000	10.064600
0.00515186	2103.560000	10.064600
0.00516380	2103.560000	9.063900
0.00517520	2103.560000	9.063900
0.00518666	2276.870000	10.244400
0.00519837	2276.870000	10.244400
0.00521009	2276.870000	10.244400
0.00522137	2269.640000	10.152300
0.00523307	2269.640000	10.152300
0.00524444	2269.640000	10.152300
0.00525652	2269.640000	10.152300
0.00526773	2264.850000	10.123000
0.00527914	2264.850000	10.123000
0.00529061	2264.850000	10.123000
0.00530264	2264.850000	10.123000
0.00531412	2264.850000	10.123000
0.00532580	2103.350000	9.065900
0.00533703	2103.350000	9.065900
0.00534888	2103.350000	9.065900
0.00536035	2102.630000	9.062900
0.00537170	2102.630000	9.062900
0.00538368	2102.630000	9.062900
0.00539492	2250.400000	10.052600
0.00540681	2250.400000	10.052600
0.00541826	2250.400000	10.052600
0.00542980	2250.400000	10.052600
0.00544176	2251.620000	10.063100
0.00545312	2251.620000	10.063100
0.00546487	2251.620000	10.063100
0.00547617	2255.840000	10.085200
0.00548795	2255.840000	10.085200
0.00549931	2238.390000	9.966500
0.00551097	2238.390000	9.966500
0.00552240	2238.390000	9.966500
0.00553403	2100.420000	9.060000
0.00554554	2100.420000	9.060000
0.00555728	2100.420000	9.060000
0.00556868	2100.420000	9.060000
0.00558061	2195.110000	9.718200
0.00559189	2195.110000	9.718200
0.00560362	2195.110000	9.718200
0.00561520	2266.070000	10.159000
0.00562663	2266.070000	10.159000
0.00563823	2266.070000	10.159000
0.00564988	2263.490000	10.139100
0.00566133	2263.490000	10.139100
0.00567277	2272.650000	10.203200
0.00568458	2272.650000	10.203200
0.00569597	2272.650000	10.203200
0.00570762	2105.640000	9.073200
0.00571965	2105.640000	9.073200
0.00573080	2105.640000	9.073200
0.00574264	2105.640000	9.073200
0.00575398	2106.070000	9.083000
0.00576580	2106.070000	9.083000
0.00577721	2106.070000	9.083000
0.00578882	2249.620000	10.024900
0.00580069	2249.620000	10.024900
0.00581215	2256.980000	10.087100
0.00582355	2256.980000	10.087100
0.00583514	2256.980000	10.087100
0.00584689	2253.770000	10.044800
0.00585830	2253.770000	10.044800
0.00586985	2253.770000	10.044800
0.00588139	2252.690000	10.059900
0.00589286	2252.690000	10.059900
0.00590470	2252.690000	10.059900
0.00591610	2252.690000	10.059900
0.00592766	2098.630000	9.057700
0.00593936	2098.630000	9.057700
0.00595104	2098.630000	9.057700
0.00596248	2257.200000	10.165600
0.00597410	2257.200000	10.165600
0.00598561	2251.550000	10.101600
0.00599714	2251.550000	10.101600
0.00600880	2251.550000	10.101600
0.00602042	2251.550000	10.101600
0.00603188	2251.550000	10.101600
0.00604367	2251.550000	10.101600
0.00605508	2251.550000	10.101600
0.00606758	2250.760000	10.113300
0.00607826	2250.760000	10.113300
0.00608962	2250.760000	10.113300
0.00610142	2089.830000	9.040200
0.00611301	2089.830000	9.040200
0.00612439	2112.650000	9.040200
0.00613625	2112.650000	9.179000
0.00614792	2112.650000	9.179000
0.00615926	2255.050000	10.087000
0.00617084	2255.050000	10.087000
0.00618226	2255.050000	10.087000
0.00619391	2258.770000	10.093700
0.00620551	2258.770000	10.093700
0.00621709	2258.770000	10.093700
0.00622863	2258.770000	10.093700
0.00624015	2248.400000	10.022100
0.00625178	2248.400000	10.022100
0.00626332	2248.400000	10.022100
0.00627501	2221.790000	9.889500
0.00628649	2221.790000	9.889500
0.00629816	2088.760000	9.037600
0.00630971	2088.760000	9.037600
0.00632130	2088.760000	9.037600
0.00633294	2240.180000	10.058500
0.00634441	2240.180000	10.058500
0.00635590	2240.180000	10.058500
0.00636763	2237.600000	10.050600
0.00637909	2237.600000	10.050600
0.00639093	2237.600000	10.050600
0.00640229	2237.600000	10.050600
0.00641381	2229.020000	9.988300
0.00642557	2229.020000	9.988300
0.00643727	2229.020000	9.988300
0.00644903	2253.120000	10.095300
0.00646045	2253.120000	10.095300
0.00647215	2096.410000	9.055900
0.00648353	2096.410000	9.055900
0.00649543	2096.410000	9.055900
0.00650672	2181.240000	9.682700
0.00651833	2181.240000	9.682700
0.00653000	2181.240000	9.682700
0.00654152	2238.460000	10.044200
0.00655322	2238.460000	10.044200
0.00656464	2238.460000	10.044200
0.00657620	2238.460000	10.044200
0.00658784	2240.390000	10.043400
0.00659953	2240.390000	10.043400
0.00661104	2240.390000	10.043400
0.00662249	2229.160000	10.015000
0.00663409	2229.160000	10.015000
0.00664569	2146.550000	9.499300
0.00665727	2146.550000	9.499300
0.00666867	2146.550000	9.499300
0.00668047	2074.520000	9.007700
0.00669207	2074.520000	9.007700
0.00670340	2074.520000	9.007700
0.00671524	2222.870000	9.996200
0.00672713	2222.870000	9.996200
0.00673858	2222.870000	9.996200
0.00675010	2222.870000	9.996200
0.00676153	2222.870000	9.996200
0.00677336	2222.870000	9.996200
0.00678471	2217.930000	9.991700
0.00679641	2217.930000	9.991700
0.00680804	2217.930000	9.991700
0.00681950	2216.930000	10.009800
0.00683105	2216.930000	10.009800
0.00684262	2216.930000	10.009800
0.00685422	2070.230000	8.999400
0.00686608	2070.230000	8.999400
0.00687720	2070.230000	8.999400
0.00688918	2070.230000	8.999400
0.00690057	2076.950000	9.035800
0.00691191	2076.950000	9.035800
0.00692360	2076.950000	9.035800
0.00693527	2215.640000	9.960400
0.00694684	2215.640000	9.960400
0.00695860	2217.360000	9.976100
0.00696988	2217.360000	9.976100
0.00698161	2217.360000	9.976100
0.00699297	2213.570000	9.968500
0.00700479	2213.570000	9.968500
0.00701639	2213.570000	9.968500
0.00702779	2085.610000	9.096800
0.00703942	2085.610000	9.096800
0.00705108	2085.610000	9.096800
0.00706260	2085.610000	9.096800
0.00707416	2068.230000	8.994700
0.00708578	2068.230000	8.994700
0.00709725	2068.230000	8.994700
0.00710877	2221.080000	10.020700
0.00712054	2221.080000	10.020700
0.00713191	2212.420000	9.953700
0.00714346	2212.420000	9.953700
0.00715510	2212.420000	9.953700
0.00716672	2229.730000	10.054800
0.00717831	2229.730000	10.054800
0.00718993	2229.730000	10.054800
0.00720149	2229.730000	10.054800
0.00721299	2184.170000	9.803400
0.00722446	2184.170000	9.803400
0.00723608	2184.170000	9.803400
0.00724780	2064.370000	8.986800
0.00725932	2064.370000	8.986800
0.00727103	2123.450000	9.440600
0.00728250	2123.450000	9.440600
0.00729424	2123.450000	9.440600
0.00730587	2195.040000	9.856700
0.00731769	2195.040000	9.856700
0.00732896	2195.040000	9.856700
0.00734071	2208.850000	9.939600
0.00735299	2208.850000	9.939600
0.00736404	2208.850000	9.939600
0.00737523	2208.850000	9.939600
0.00738679	2227.950000	9.993100
0.00740102	2227.950000	9.993100
0.00741006	2227.950000	9.993100
0.00742169	2085.820000	9.035400
0.00743312	2085.820000	9.035400
0.00744490	2084.750000	9.033300
0.00745632	2084.750000	9.033300
0.00746816	2084.750000	9.033300
0.00747919	2243.390000	10.135600
0.00749089	2243.390000	10.135600
0.00750262	2243.390000	10.135600
0.00751421	2222.650000	9.977200
0.00752584	2222.650000	9.977200
